 18O2;(8,0);79K;53720-4031 cm-1;4614 pts
      WNO        SIGMA
  53720.090     1.590E-22
  53720.157     2.096E-22
  53720.224     2.476E-22
  53720.291     3.368E-22
  53720.358     4.135E-22
  53720.425     2.979E-22
  53720.492     2.083E-22
  53720.559     1.699E-22
  53720.626     1.188E-22
  53720.693     6.792E-23
  53720.761     4.238E-23
  53720.828     4.211E-23
  53720.895    -8.619E-24
  53720.962    -3.407E-23
  53721.029    -5.949E-23
  53721.096    -5.976E-23
  53721.163    -1.353E-22
  53721.230    -2.106E-22
  53721.297    -3.229E-22
  53721.364    -3.975E-22
  53721.431    -2.861E-22
  53721.499    -1.116E-22
  53721.566     3.919E-23
  53721.633     8.951E-23
  53721.700     1.019E-22
  53721.767     1.524E-22
  53721.834     2.157E-22
  53721.901     2.793E-22
  53721.968     1.262E-22
  53722.035    -5.261E-25
  53722.102    -1.265E-22
  53722.169    -1.393E-22
  53722.237    -1.019E-22
  53722.304    -2.679E-23
  53722.371     1.076E-23
  53722.438    -2.732E-23
  53722.505    -1.030E-22
  53722.572    -1.033E-22
  53722.639    -2.812E-23
  53722.706    -5.355E-23
  53722.773    -6.639E-23
  53722.840    -1.043E-22
  53722.907    -6.692E-23
  53722.975     3.362E-23
  53723.042     1.220E-22
  53723.109     2.745E-22
  53723.176     3.510E-22
  53723.243     2.101E-22
  53723.310     4.493E-23
  53723.377    -3.104E-23
  53723.444    -6.905E-23
  53723.511     5.677E-23
  53723.578     1.834E-22
  53723.645     8.155E-23
  53723.713    -1.977E-23
  53723.780    -1.331E-22
  53723.847    -3.205E-22
  53723.914    -3.704E-22
  53723.981    -2.962E-22
  53724.048    -1.467E-22
  53724.115    -3.396E-23
  53724.182    -2.163E-23
  53724.249     5.385E-23
  53724.316     4.094E-23
  53724.384    -4.761E-23
  53724.451    -4.787E-23
  53724.518     9.076E-23
  53724.585     1.794E-22
  53724.652     2.173E-22
  53724.719     2.043E-22
  53724.786     6.438E-23
  53724.853    -1.168E-23
  53724.920    -2.455E-23
  53724.987     7.624E-23
  53725.054     2.285E-22
  53725.122     2.282E-22
  53725.189     1.897E-22
  53725.256     1.513E-22
  53725.323     8.758E-23
  53725.390     9.998E-23
  53725.457     2.269E-22
  53725.524     2.905E-22
  53725.591     3.030E-22
  53725.658     2.772E-22
  53725.725     7.332E-23
  53725.793    -2.661E-22
  53725.860    -4.647E-22
  53725.927    -3.908E-22
  53725.994    -1.544E-22
  53726.061     1.227E-22
  53726.128     3.522E-22
  53726.195     4.162E-22
  53726.262     4.159E-22
  53726.329     4.028E-22
  53726.396     3.126E-22
  53726.464     3.124E-22
  53726.531     3.121E-22
  53726.598     2.862E-22
  53726.665     2.221E-22
  53726.732     1.875E-23
  53726.799    -2.326E-22
  53726.866    -3.201E-22
  53726.933    -3.576E-22
  53727.000    -3.703E-22
  53727.068    -3.084E-22
  53727.135    -2.340E-22
  53727.202    -1.717E-22
  53727.269    -1.093E-22
  53727.336    -5.930E-23
  53727.403    -8.472E-23
  53727.470    -9.755E-23
  53727.537    -7.267E-23
  53727.604     4.057E-23
  53727.671     1.926E-22
  53727.739     1.924E-22
  53727.806     1.031E-22
  53727.873     5.216E-23
  53727.940     3.924E-23
  53728.007     6.428E-23
  53728.074     1.020E-22
  53728.141     2.580E-23
  53728.208     1.650E-22
  53728.275     3.437E-22
  53728.342     3.948E-22
  53728.410     3.688E-22
  53728.477     3.557E-22
  53728.544     2.785E-22
  53728.611     1.762E-22
  53728.678     1.250E-22
  53728.745     3.605E-23
  53728.812    -5.255E-23
  53728.879    -6.541E-23
  53728.946    -1.661E-22
  53729.014    -1.288E-22
  53729.081     9.446E-24
  53729.148     1.868E-22
  53729.215     3.143E-22
  53729.282     2.373E-22
  53729.349     1.351E-22
  53729.416     7.137E-23
  53729.483     1.091E-22
  53729.550     2.234E-22
  53729.618     2.871E-22
  53729.685     1.846E-22
  53729.752     4.472E-23
  53729.819     4.445E-23
  53729.886     2.349E-22
  53729.953     2.986E-22
  53730.020     2.088E-22
  53730.087     1.576E-22
  53730.154    -7.434E-24
  53730.221    -1.461E-22
  53730.289    -1.965E-22
  53730.356    -1.215E-22
  53730.423     1.054E-22
  53730.490     3.092E-22
  53730.557     2.962E-22
  53730.624     1.173E-22
  53730.691    -1.605E-22
  53730.758    -3.231E-22
  53730.825    -3.730E-22
  53730.893    -2.114E-22
  53730.960    -4.846E-23
  53731.027     1.284E-22
  53731.094     2.684E-22
  53731.161     3.836E-22
  53731.228     4.220E-22
  53731.295     3.189E-22
  53731.362     1.017E-22
  53731.429     6.339E-23
  53731.497     8.848E-23
  53731.564     2.155E-22
  53731.631     2.280E-22
  53731.698     1.894E-22
  53731.765     1.637E-22
  53731.832     3.039E-22
  53731.899     4.580E-22
  53731.966     5.484E-22
  53732.033     4.575E-22
  53732.101     2.517E-22
  53732.168     2.249E-23
  53732.235    -5.351E-23
  53732.302     3.461E-23
  53732.369     1.613E-22
  53732.436     2.248E-22
  53732.503     1.607E-22
  53732.570     1.096E-22
  53732.638     5.861E-23
  53732.705     4.568E-23
  53732.772     1.088E-22
  53732.839     2.871E-22
  53732.906     3.639E-22
  53732.973     3.507E-22
  53733.040     2.607E-22
  53733.107     1.075E-22
  53733.174    -5.724E-23
  53733.242    -1.078E-22
  53733.309    -1.081E-22
  53733.376    -1.209E-22
  53733.443    -1.338E-22
  53733.510    -1.842E-22
  53733.577    -1.719E-22
  53733.644    -1.597E-22
  53733.711    -1.348E-22
  53733.778    -9.740E-23
  53733.846    -8.508E-23
  53733.913    -8.535E-23
  53733.980    -1.986E-22
  53734.047    -2.863E-22
  53734.114    -2.616E-22
  53734.181    -2.494E-22
  53734.248    -2.621E-22
  53734.315    -2.499E-22
  53734.383    -1.751E-22
  53734.450    -1.001E-22
  53734.517     6.383E-23
  53734.584     1.398E-22
  53734.651     1.009E-26
  53734.718    -5.075E-23
  53734.785     7.545E-23
  53734.852     2.152E-22
  53734.920     2.533E-22
  53734.987     2.658E-22
  53735.054     2.912E-22
  53735.121     2.653E-22
  53735.188     2.650E-22
  53735.255     2.136E-22
  53735.322     1.623E-22
  53735.389     2.386E-22
  53735.456     2.767E-22
  53735.524     2.637E-22
  53735.591     2.506E-22
  53735.658     1.737E-22
  53735.725     1.480E-22
  53735.792     1.859E-22
  53735.859     2.112E-22
  53735.926     2.365E-22
  53735.993     3.516E-22
  53736.061     3.257E-22
  53736.128     3.511E-22
  53736.195     4.023E-22
  53736.262     4.278E-22
  53736.329     3.889E-22
  53736.396     3.629E-22
  53736.463     4.141E-22
  53736.530     4.914E-22
  53736.598     5.950E-22
  53736.665     6.468E-22
  53736.732     6.726E-22
  53736.799     4.774E-22
  53736.866     3.096E-22
  53736.933     2.837E-22
  53737.000     2.963E-22
  53737.067     3.731E-22
  53737.135     3.342E-22
  53737.202     2.187E-22
  53737.269     3.337E-22
  53737.336     4.107E-22
  53737.403     6.569E-22
  53737.470     8.138E-22
  53737.537     6.564E-22
  53737.604     5.260E-22
  53737.672     6.037E-22
  53737.739     7.471E-22
  53737.806     7.600E-22
  53737.873     6.942E-22
  53737.940     5.896E-22
  53738.007     3.951E-22
  53738.074     2.920E-22
  53738.141     2.917E-22
  53738.209     3.428E-22
  53738.276     2.400E-22
  53738.343     1.503E-22
  53738.410     1.628E-22
  53738.477     1.498E-22
  53738.544     4.786E-23
  53738.611     2.226E-23
  53738.678     7.270E-23
  53738.746     8.513E-23
  53738.813     4.680E-23
  53738.880     1.609E-22
  53738.947     2.373E-22
  53739.014     1.987E-22
  53739.081     5.842E-23
  53739.148     3.279E-23
  53739.215     1.979E-22
  53739.283     3.386E-22
  53739.350     3.898E-22
  53739.417     4.024E-22
  53739.484     3.506E-22
  53739.551     2.349E-22
  53739.618     1.453E-22
  53739.685     1.450E-22
  53739.753     2.469E-22
  53739.820     3.107E-22
  53739.887     3.490E-22
  53739.954     3.231E-22
  53740.021     2.971E-22
  53740.088     2.968E-22
  53740.155     2.966E-22
  53740.222     2.195E-22
  53740.290     4.094E-23
  53740.357    -4.788E-23
  53740.424    -6.077E-23
  53740.491    -4.841E-23
  53740.558     2.720E-23
  53740.625    -2.368E-23
  53740.692     3.934E-23
  53740.760     1.535E-22
  53740.827     2.171E-22
  53740.894     3.065E-22
  53740.961     2.806E-22
  53741.028     1.652E-22
  53741.095     1.139E-22
  53741.162     1.646E-22
  53741.229     2.795E-22
  53741.297     2.408E-22
  53741.364     2.918E-22
  53741.431     3.429E-22
  53741.498     2.656E-22
  53741.565     2.269E-22
  53741.632     1.883E-22
  53741.699     8.612E-23
  53741.767     3.508E-23
  53741.834     8.559E-23
  53741.901     1.235E-22
  53741.968     1.359E-22
  53742.035     1.867E-22
  53742.102     9.723E-23
  53742.169    -4.516E-24
  53742.236    -1.743E-23
  53742.304     2.028E-23
  53742.371     1.726E-22
  53742.438     3.647E-22
  53742.505     4.031E-22
  53742.572     2.998E-22
  53742.639     2.867E-22
  53742.706     3.121E-22
  53742.774     2.862E-22
  53742.841     1.580E-22
  53742.908     1.195E-22
  53742.975     1.320E-22
  53743.042     9.350E-23
  53743.109    -4.618E-23
  53743.176    -1.347E-22
  53743.244    -2.728E-22
  53743.311    -3.604E-22
  53743.378    -4.476E-22
  53743.445    -4.850E-22
  53743.512    -4.852E-22
  53743.579    -4.236E-22
  53743.646    -2.744E-22
  53743.713    -8.643E-23
  53743.781    -3.621E-23
  53743.848    -8.697E-23
  53743.915    -1.376E-22
  53743.982    -4.964E-23
  53744.049    -3.727E-23
  53744.116    -1.384E-22
  53744.183    -1.512E-22
  53744.251    -1.278E-23
  53744.318     1.012E-22
  53744.385     7.546E-23
  53744.452     1.516E-22
  53744.519     2.664E-22
  53744.586     2.662E-22
  53744.653     1.380E-22
  53744.721     1.378E-22
  53744.788     1.503E-22
  53744.855     2.267E-22
  53744.922     3.419E-22
  53744.989     4.320E-22
  53745.056     3.930E-22
  53745.123     2.512E-22
  53745.191     7.226E-23
  53745.258    -1.678E-23
  53745.325    -1.704E-23
  53745.392    -5.524E-23
  53745.459    -2.065E-22
  53745.526    -3.069E-22
  53745.593    -2.822E-22
  53745.661    -1.697E-22
  53745.728    -5.657E-23
  53745.795    -6.251E-24
  53745.862    -3.183E-23
  53745.929    -1.078E-22
  53745.996    -4.500E-23
  53746.063     1.324E-22
  53746.131     2.472E-22
  53746.198     2.854E-22
  53746.265     3.237E-22
  53746.332     3.106E-22
  53746.399     1.694E-22
  53746.466     4.179E-23
  53746.533     1.616E-23
  53746.601     5.396E-23
  53746.668     9.183E-23
  53746.735     7.884E-23
  53746.802     1.040E-22
  53746.869     7.831E-23
  53746.936    -1.078E-23
  53747.004     1.616E-24
  53747.071     5.209E-23
  53747.138     1.792E-22
  53747.205     2.429E-22
  53747.272     2.555E-22
  53747.339     3.066E-22
  53747.406     3.578E-22
  53747.474     3.447E-22
  53747.541     2.544E-22
  53747.608     1.774E-22
  53747.675     1.260E-22
  53747.742     1.513E-22
  53747.809     2.021E-22
  53747.876     1.507E-22
  53747.944     1.632E-22
  53748.011     7.377E-23
  53748.078     1.372E-22
  53748.145     2.392E-22
  53748.212     2.518E-22
  53748.279     2.643E-22
  53748.346     2.512E-22
  53748.414     2.895E-22
  53748.481     3.278E-22
  53748.548     2.504E-22
  53748.615     2.502E-22
  53748.682     3.141E-22
  53748.749     3.654E-22
  53748.817     3.136E-22
  53748.884     1.979E-22
  53748.951     5.733E-23
  53749.018    -4.436E-23
  53749.085    -1.204E-22
  53749.152    -9.542E-23
  53749.219    -4.516E-23
  53749.287    -7.454E-24
  53749.354     3.032E-23
  53749.421     6.817E-23
  53749.488     1.188E-22
  53749.555     1.058E-22
  53749.622     1.657E-23
  53749.689    -3.438E-23
  53749.757     3.352E-24
  53749.824     1.813E-22
  53749.891     1.939E-22
  53749.958     1.170E-22
  53750.025     6.577E-23
  53750.092    -9.916E-23
  53750.160    -8.680E-23
  53750.227    -3.651E-23
  53750.294    -3.678E-23
  53750.361    -6.234E-23
  53750.428    -1.131E-22
  53750.495    -6.287E-23
  53750.562    -1.262E-22
  53750.630    -1.769E-22
  53750.697    -1.897E-22
  53750.764    -1.648E-22
  53750.831    -1.399E-22
  53750.898    -8.974E-23
  53750.965    -5.210E-23
  53751.033    -6.501E-23
  53751.100     4.879E-23
  53751.167     1.632E-22
  53751.234     1.885E-22
  53751.301     2.523E-22
  53751.368     2.264E-22
  53751.436     2.005E-22
  53751.503     2.259E-22
  53751.570     3.026E-22
  53751.637     3.153E-22
  53751.704     2.379E-22
  53751.771     9.701E-23
  53751.838     2.045E-23
  53751.906     7.494E-24
  53751.973     1.992E-23
  53752.040     9.595E-23
  53752.107     1.850E-22
  53752.174     3.776E-22
  53752.241     4.032E-22
  53752.309     2.612E-22
  53752.376     1.712E-22
  53752.443    -7.323E-24
  53752.510    -7.088E-23
  53752.577     4.291E-23
  53752.644     6.808E-23
  53752.712     1.698E-23
  53752.779    -7.195E-23
  53752.846    -2.233E-22
  53752.913    -1.482E-22
  53752.980    -6.011E-23
  53753.047    -7.302E-23
  53753.114    -9.855E-23
  53753.182    -1.026E-23
  53753.249     1.294E-22
  53753.316     2.571E-22
  53753.383     2.569E-22
  53753.450     1.797E-22
  53753.517     7.734E-23
  53753.585     1.536E-22
  53753.652     3.330E-22
  53753.719     5.140E-22
  53753.786     6.311E-22
  53753.853     7.356E-22
  53753.920     6.698E-22
  53753.988     5.129E-22
  53754.055     2.671E-22
  53754.122     4.949E-23
  53754.189    -1.658E-22
  53754.256    -2.415E-22
  53754.323    -1.664E-22
  53754.391    -1.036E-22
  53754.458    -2.652E-24
  53754.525     1.371E-22
  53754.592     1.880E-22
  53754.659     2.005E-22
  53754.726     1.746E-22
  53754.794     1.744E-22
  53754.861     1.613E-22
  53754.928     1.994E-22
  53754.995     9.694E-23
  53755.062     7.633E-24
  53755.129    -3.068E-23
  53755.197    -4.361E-23
  53755.264    -1.449E-22
  53755.331    -2.458E-22
  53755.398    -2.711E-22
  53755.465    -2.212E-22
  53755.532    -8.290E-23
  53755.600    -7.193E-24
  53755.667    -5.814E-23
  53755.734    -3.308E-23
  53755.801     4.281E-23
  53755.868     1.829E-22
  53755.935     2.211E-22
  53756.003     2.336E-22
  53756.070     2.590E-22
  53756.137     2.459E-22
  53756.204     1.944E-22
  53756.271     1.941E-22
  53756.338     1.043E-22
  53756.406     7.859E-23
  53756.473     5.286E-23
  53756.540     5.259E-23
  53756.607     9.053E-23
  53756.674     1.030E-22
  53756.741     1.155E-22
  53756.809     1.280E-22
  53756.876     7.672E-23
  53756.943    -8.851E-23
  53757.010    -2.022E-22
  53757.077    -2.151E-22
  53757.144    -1.650E-22
  53757.212    -7.693E-23
  53757.279     1.151E-23
  53757.346     7.485E-23
  53757.413     1.639E-22
  53757.480     6.158E-23
  53757.547    -4.030E-23
  53757.615    -1.417E-22
  53757.682    -1.671E-22
  53757.749    -1.044E-22
  53757.816    -4.136E-23
  53757.883     5.997E-23
  53757.950     1.874E-22
  53758.018     2.513E-22
  53758.085     2.767E-22
  53758.152     3.538E-22
  53758.219     2.891E-22
  53758.286     2.245E-22
  53758.353     1.730E-22
  53758.421     1.088E-22
  53758.488     4.484E-23
  53758.555     1.914E-23
  53758.622    -6.528E-24
  53758.689    -8.281E-23
  53758.756    -1.210E-22
  53758.824    -8.335E-23
  53758.891    -5.831E-23
  53758.958     1.322E-22
  53759.025     2.730E-22
  53759.092     3.372E-22
  53759.160     3.369E-22
  53759.227     3.495E-22
  53759.294     3.622E-22
  53759.361     3.619E-22
  53759.428     3.487E-22
  53759.495     4.002E-22
  53759.563     3.095E-22
  53759.630     2.320E-22
  53759.697     1.293E-22
  53759.764     1.625E-24
  53759.831    -1.000E-22
  53759.898    -1.382E-22
  53759.966    -1.762E-22
  53760.033    -1.639E-22
  53760.100    -1.011E-22
  53760.167     2.544E-23
  53760.234     1.655E-22
  53760.301     2.294E-22
  53760.369     3.708E-22
  53760.436     5.263E-22
  53760.503     5.782E-22
  53760.570     6.171E-22
  53760.637     6.038E-22
  53760.705     5.643E-22
  53760.772     4.469E-22
  53760.839     2.529E-22
  53760.906     1.628E-22
  53760.973     2.138E-22
  53761.040     2.008E-22
  53761.108     1.877E-22
  53761.175     2.130E-22
  53761.242     2.000E-22
  53761.309     1.357E-22
  53761.376     4.607E-23
  53761.444     8.404E-23
  53761.511     9.653E-23
  53761.578     7.075E-23
  53761.645    -9.458E-23
  53761.712    -1.580E-22
  53761.779    -1.960E-22
  53761.847    -2.089E-22
  53761.914    -2.343E-22
  53761.981    -2.597E-22
  53762.048    -2.223E-22
  53762.115    -1.344E-22
  53762.182    -7.141E-23
  53762.250    -5.901E-23
  53762.317    -5.928E-23
  53762.384    -8.804E-24
  53762.451     2.907E-23
  53762.518     1.608E-23
  53762.586    -1.110E-22
  53762.653    -3.125E-22
  53762.720    -3.752E-22
  53762.787    -3.255E-22
  53762.854    -2.632E-22
  53762.921    -1.754E-22
  53762.989    -6.195E-23
  53763.056    -4.955E-23
  53763.123    -2.444E-23
  53763.190     3.885E-23
  53763.257     1.314E-23
  53763.325    -1.255E-23
  53763.392    -8.888E-23
  53763.459    -7.649E-23
  53763.526     1.207E-23
  53763.593     4.998E-23
  53763.660    -1.182E-24
  53763.728    -1.534E-22
  53763.795    -2.041E-22
  53763.862    -1.160E-22
  53763.929    -2.765E-23
  53763.996    -1.039E-22
  53764.064    -7.890E-23
  53764.131     9.658E-24
  53764.198     6.032E-23
  53764.265     1.751E-22
  53764.332     1.876E-22
  53764.400     7.227E-23
  53764.467    -6.784E-23
  53764.534    -2.824E-22
  53764.601    -4.326E-22
  53764.668    -4.826E-22
  53764.735    -4.082E-22
  53764.803    -2.332E-22
  53764.870     6.714E-24
  53764.937     1.340E-22
  53765.004     1.593E-22
  53765.071     1.719E-22
  53765.139     1.204E-22
  53765.206    -3.274E-23
  53765.273    -1.595E-22
  53765.340    -1.219E-22
  53765.407     1.729E-23
  53765.475     1.447E-22
  53765.542     2.213E-22
  53765.609     2.211E-22
  53765.676     7.994E-23
  53765.743    -9.477E-24
  53765.810    -7.319E-23
  53765.878    -4.810E-23
  53765.945     2.432E-24
  53766.012    -1.055E-23
  53766.079     5.282E-23
  53766.146     9.083E-23
  53766.214     2.058E-22
  53766.281     3.861E-22
  53766.348     5.549E-22
  53766.415     6.988E-22
  53766.482     6.460E-22
  53766.550     5.150E-22
  53766.617     3.589E-22
  53766.684     2.296E-22
  53766.751     1.268E-22
  53766.818     4.988E-23
  53766.885    -3.943E-23
  53766.953    -2.700E-23
  53767.020     8.735E-23
  53767.087     1.254E-22
  53767.154     1.380E-22
  53767.221     1.377E-22
  53767.289     1.630E-22
  53767.356     9.879E-23
  53767.423    -3.457E-24
  53767.490    -1.052E-22
  53767.557    -1.560E-22
  53767.625    -1.310E-22
  53767.692    -1.313E-22
  53767.759    -5.560E-23
  53767.826    -5.587E-23
  53767.893    -1.068E-22
  53767.961    -5.599E-24
  53768.028     1.958E-23
  53768.095    -5.694E-23
  53768.162    -4.452E-23
  53768.229    -1.938E-23
  53768.297     5.674E-23
  53768.364     1.331E-22
  53768.431     1.329E-22
  53768.498     1.198E-22
  53768.565     4.712E-24
  53768.632    -4.639E-23
  53768.700     1.690E-23
  53768.767     1.315E-22
  53768.834     1.569E-22
  53768.901     6.709E-23
  53768.968     6.682E-23
  53769.036     7.932E-23
  53769.103     5.353E-23
  53769.170     1.503E-23
  53769.237    -7.417E-23
  53769.304    -1.504E-22
  53769.372    -1.000E-22
  53769.439     9.049E-23
  53769.506     1.670E-22
  53769.573     3.471E-22
  53769.640     5.027E-22
  53769.708     3.854E-22
  53769.775     2.817E-22
  53769.842     2.943E-22
  53769.909     3.070E-22
  53769.976     3.067E-22
  53770.044     3.711E-22
  53770.111     3.838E-22
  53770.178     4.615E-22
  53770.245     4.222E-22
  53770.312     2.280E-22
  53770.380    -2.520E-24
  53770.447    -2.788E-24
  53770.514     8.620E-23
  53770.581     2.013E-22
  53770.648     2.138E-22
  53770.716     2.264E-22
  53770.783     3.682E-22
  53770.850     4.848E-22
  53770.917     4.065E-22
  53770.984     3.544E-22
  53771.052     2.895E-22
  53771.119     2.248E-22
  53771.186     2.246E-22
  53771.253     9.604E-23
  53771.320     4.469E-23
  53771.388     3.167E-23
  53771.455     1.080E-22
  53771.522     1.462E-22
  53771.589     8.192E-23
  53771.656     5.118E-24
  53771.724    -1.221E-22
  53771.791    -1.981E-22
  53771.858    -1.858E-22
  53771.925    -1.102E-22
  53771.992    -5.978E-23
  53772.060    -7.274E-23
  53772.127    -6.032E-23
  53772.194     2.974E-24
  53772.261    -2.274E-23
  53772.328    -1.245E-22
  53772.396    -1.627E-22
  53772.463    -7.435E-23
  53772.530     1.422E-22
  53772.597     2.963E-22
  53772.664     3.089E-22
  53772.732     2.699E-22
  53772.799     2.053E-22
  53772.866     1.303E-23
  53772.933    -1.016E-22
  53773.000    -1.398E-22
  53773.068    -8.944E-23
  53773.135    -6.434E-23
  53773.202    -7.730E-23
  53773.269    -1.409E-22
  53773.336    -2.703E-23
  53773.404     8.746E-23
  53773.471     1.128E-22
  53773.538     2.309E-23
  53773.605     4.834E-23
  53773.673     9.918E-23
  53773.740     8.612E-23
  53773.807     4.753E-23
  53773.874     2.175E-23
  53773.941     1.622E-22
  53774.009     2.648E-22
  53774.076     1.104E-22
  53774.143    -6.836E-23
  53774.210    -9.400E-23
  53774.277     8.398E-23
  53774.345     1.221E-22
  53774.412     9.623E-23
  53774.479     1.344E-22
  53774.546     3.182E-23
  53774.613    -9.561E-23
  53774.681    -8.319E-23
  53774.748     1.827E-23
  53774.815     2.358E-22
  53774.882     2.485E-22
  53774.949     2.353E-22
  53775.017     1.836E-22
  53775.084     1.192E-22
  53775.151     1.189E-22
  53775.218     1.443E-22
  53775.286     1.440E-22
  53775.353     2.208E-22
  53775.420     1.948E-22
  53775.487     1.432E-22
  53775.554     1.173E-22
  53775.622     1.555E-22
  53775.689     1.296E-22
  53775.756     1.037E-22
  53775.823     1.034E-22
  53775.890     5.199E-23
  53775.958     1.927E-22
  53776.025     2.439E-22
  53776.092     3.600E-22
  53776.159     4.246E-22
  53776.226     3.335E-22
  53776.294     1.656E-22
  53776.361     1.013E-22
  53776.428     6.262E-23
  53776.495    -2.691E-23
  53776.563    -5.261E-23
  53776.630     2.351E-23
  53776.697     1.384E-22
  53776.764     1.509E-22
  53776.831     1.250E-22
  53776.899     1.119E-22
  53776.966     8.604E-23
  53777.033     1.627E-22
  53777.100     3.949E-22
  53777.167     5.772E-22
  53777.235     6.951E-22
  53777.302     6.949E-22
  53777.369     5.895E-22
  53777.436     3.676E-22
  53777.504     1.351E-22
  53777.571    -5.739E-24
  53777.638    -8.230E-23
  53777.705    -5.717E-23
  53777.772    -1.209E-22
  53777.840    -1.338E-22
  53777.907    -1.982E-23
  53777.974     2.232E-22
  53778.041     4.171E-22
  53778.108     4.428E-22
  53778.176     3.646E-22
  53778.243     2.350E-22
  53778.310     2.090E-22
  53778.377     2.216E-22
  53778.445     3.635E-22
  53778.512     4.803E-22
  53778.579     5.715E-22
  53778.646     7.819E-22
  53778.713     8.347E-22
  53778.781     8.211E-22
  53778.848     6.492E-22
  53778.915     4.918E-22
  53778.982     5.568E-22
  53779.049     7.275E-22
  53779.117     6.745E-22
  53779.184     6.347E-22
  53779.251     6.345E-22
  53779.318     6.868E-22
  53779.386     7.261E-22
  53779.453     7.523E-22
  53779.520     7.388E-22
  53779.587     7.385E-22
  53779.654     7.119E-22
  53779.722     7.248E-22
  53779.789     6.323E-22
  53779.856     5.141E-22
  53779.923     4.356E-22
  53779.991     4.223E-22
  53780.058     4.351E-22
  53780.125     4.218E-22
  53780.192     4.606E-22
  53780.259     4.864E-22
  53780.327     4.600E-22
  53780.394     3.558E-22
  53780.461     3.685E-22
  53780.528     3.812E-22
  53780.596     3.939E-22
  53780.663     4.196E-22
  53780.730     4.584E-22
  53780.797     5.104E-22
  53780.864     5.362E-22
  53780.932     5.098E-22
  53780.999     3.923E-22
  53781.066     3.790E-22
  53781.133     5.745E-22
  53781.201     7.850E-22
  53781.268     1.011E-21
  53781.335     1.132E-21
  53781.402     1.172E-21
  53781.469     1.024E-21
  53781.537     8.765E-22
  53781.604     8.763E-22
  53781.671     9.559E-22
  53781.738     1.076E-21
  53781.806     1.116E-21
  53781.873     1.170E-21
  53781.940     1.278E-21
  53782.007     1.386E-21
  53782.074     1.468E-21
  53782.142     1.536E-21
  53782.209     1.619E-21
  53782.276     1.701E-21
  53782.343     1.742E-21
  53782.411     1.714E-21
  53782.478     1.811E-21
  53782.545     1.993E-21
  53782.612     2.147E-21
  53782.679     2.246E-21
  53782.747     2.189E-21
  53782.814     2.161E-21
  53782.881     2.118E-21
  53782.948     1.991E-21
  53783.016     1.935E-21
  53783.083     1.948E-21
  53783.150     1.990E-21
  53783.217     2.060E-21
  53783.285     2.145E-21
  53783.352     2.173E-21
  53783.419     2.045E-21
  53783.486     1.961E-21
  53783.553     1.793E-21
  53783.621     1.696E-21
  53783.688     1.613E-21
  53783.755     1.434E-21
  53783.822     1.297E-21
  53783.890     1.135E-21
  53783.957     1.081E-21
  53784.024     8.799E-22
  53784.091     7.205E-22
  53784.158     5.886E-22
  53784.226     3.664E-22
  53784.293     1.980E-22
  53784.360     1.720E-22
  53784.427     2.232E-22
  53784.495     2.746E-22
  53784.562     3.261E-22
  53784.629     2.224E-22
  53784.696     1.835E-22
  53784.764     2.219E-22
  53784.831     3.380E-22
  53784.898     4.287E-22
  53784.965     5.460E-22
  53785.032     4.804E-22
  53785.100     2.722E-22
  53785.167     1.559E-22
  53785.234     1.428E-22
  53785.301     6.556E-23
  53785.369     3.970E-23
  53785.436     7.782E-23
  53785.503     2.061E-22
  53785.570     3.092E-22
  53785.638     3.348E-22
  53785.705     2.310E-22
  53785.772     1.535E-22
  53785.839     1.404E-22
  53785.906     2.431E-22
  53785.974     2.816E-22
  53786.041     3.851E-22
  53786.108     4.761E-22
  53786.175     5.019E-22
  53786.243     5.148E-22
  53786.310     6.063E-22
  53786.377     5.142E-22
  53786.444     4.356E-22
  53786.512     3.313E-22
  53786.579     2.663E-22
  53786.646     2.660E-22
  53786.713     3.046E-22
  53786.781     3.302E-22
  53786.848     2.652E-22
  53786.915     1.361E-22
  53786.982     1.229E-22
  53787.049     1.870E-22
  53787.117     2.771E-22
  53787.184     2.898E-22
  53787.251     1.476E-22
  53787.318     1.912E-23
  53787.386     1.342E-22
  53787.453     2.112E-22
  53787.520     4.389E-23
  53787.587    -5.848E-23
  53787.655    -7.761E-24
  53787.722     8.150E-23
  53787.789     1.069E-22
  53787.856     8.096E-23
  53787.924    -8.836E-24
  53787.991    -7.282E-23
  53788.058    -4.763E-23
  53788.125    -8.608E-23
  53788.193    -1.878E-22
  53788.260    -3.143E-22
  53788.327    -3.648E-22
  53788.394    -3.148E-22
  53788.461    -1.509E-22
  53788.529     1.429E-23
  53788.596     2.195E-22
  53788.663     3.877E-22
  53788.730     5.048E-22
  53788.798     4.523E-22
  53788.865     3.089E-22
  53788.932     3.216E-22
  53788.999     3.214E-22
  53789.067     3.211E-22
  53789.134     2.949E-22
  53789.201     1.913E-22
  53789.268     2.039E-22
  53789.336     2.682E-22
  53789.403     3.327E-22
  53789.470     3.714E-22
  53789.537     3.322E-22
  53789.605     2.413E-22
  53789.672     1.636E-22
  53789.739     2.149E-22
  53789.806     2.276E-22
  53789.874     1.371E-22
  53789.941     4.701E-23
  53790.008     1.752E-22
  53790.075     3.430E-22
  53790.142     2.909E-22
  53790.210     2.259E-22
  53790.277     1.612E-22
  53790.344     1.867E-22
  53790.411     2.122E-22
  53790.479     2.507E-22
  53790.546     3.411E-22
  53790.613     2.114E-22
  53790.680     4.405E-23
  53790.748     5.659E-23
  53790.815     1.076E-22
  53790.882     1.331E-22
  53790.949     1.328E-22
  53791.017     1.969E-22
  53791.084     2.354E-22
  53791.151     1.063E-22
  53791.218     1.631E-23
  53791.286     2.883E-23
  53791.353    -2.255E-23
  53791.420    -4.833E-23
  53791.487    -2.309E-23
  53791.555     9.183E-23
  53791.622     2.332E-22
  53791.689     3.366E-22
  53791.756     2.327E-22
  53791.824     6.510E-23
  53791.891    -8.842E-23
  53791.958    -1.522E-22
  53792.025    -3.800E-23
  53792.093    -2.551E-23
  53792.160     5.094E-23
  53792.227     1.228E-23
  53792.294     1.017E-22
  53792.362     1.014E-22
  53792.429     1.269E-22
  53792.496     2.168E-22
  53792.563     1.521E-22
  53792.631     1.004E-22
  53792.698     1.040E-23
  53792.765    -7.919E-23
  53792.832    -1.557E-22
  53792.900    -2.193E-22
  53792.967    -2.069E-22
  53793.034    -1.945E-22
  53793.101    -1.060E-22
  53793.169    -4.270E-24
  53793.236    -3.008E-23
  53793.303    -3.035E-23
  53793.370    -6.887E-23
  53793.438     7.436E-24
  53793.505     1.612E-22
  53793.572     2.254E-22
  53793.639     3.288E-22
  53793.707     3.025E-22
  53793.774     2.246E-22
  53793.841     3.020E-22
  53793.908     3.537E-22
  53793.976     3.144E-22
  53794.043     1.977E-22
  53794.110     5.595E-23
  53794.177    -9.756E-23
  53794.245    -3.130E-22
  53794.312    -2.629E-22
  53794.379    -2.379E-22
  53794.446    -2.508E-22
  53794.514    -2.637E-22
  53794.581    -2.007E-22
  53794.648    -1.122E-22
  53794.715     1.511E-23
  53794.783     5.326E-23
  53794.850     9.148E-23
  53794.917     5.272E-23
  53794.984    -4.984E-23
  53795.052    -2.532E-22
  53795.119    -3.165E-22
  53795.186    -2.537E-22
  53795.253    -3.815E-23
  53795.321     7.676E-23
  53795.388     5.084E-23
  53795.455    -3.896E-23
  53795.522    -1.157E-22
  53795.590    -1.794E-22
  53795.657    -2.682E-22
  53795.724    -2.053E-22
  53795.791    -1.549E-22
  53795.859    -2.185E-22
  53795.926    -2.188E-22
  53795.993    -1.937E-22
  53796.060    -1.178E-22
  53796.128    -1.611E-23
  53796.195     7.326E-23
  53796.262     1.759E-22
  53796.329     2.015E-22
  53796.397     2.270E-22
  53796.464     1.751E-22
  53796.531     9.760E-23
  53796.598    -5.214E-24
  53796.666    -1.075E-22
  53796.733    -2.726E-22
  53796.800    -2.349E-22
  53796.867    -9.560E-23
  53796.935    -1.086E-22
  53797.002    -1.851E-22
  53797.069    -2.233E-22
  53797.137    -2.110E-22
  53797.204    -1.732E-22
  53797.271    -3.346E-23
  53797.338     1.201E-22
  53797.406     1.842E-22
  53797.473     1.969E-22
  53797.540     2.742E-22
  53797.607     2.999E-22
  53797.675     1.832E-22
  53797.742     1.571E-22
  53797.809     2.732E-22
  53797.876     2.729E-22
  53797.944     4.157E-22
  53798.011     5.201E-22
  53798.078     4.674E-22
  53798.145     3.367E-22
  53798.213     1.810E-22
  53798.280     3.926E-23
  53798.347    -1.778E-22
  53798.414    -3.423E-22
  53798.482    -3.677E-22
  53798.549    -2.166E-22
  53798.616    -5.162E-23
  53798.683    -7.709E-25
  53798.751     2.456E-23
  53798.818     1.528E-22
  53798.885     2.300E-22
  53798.953     1.523E-22
  53799.020     1.391E-22
  53799.087     1.388E-22
  53799.154     6.141E-23
  53799.222    -2.850E-23
  53799.289    -1.053E-22
  53799.356    -1.056E-22
  53799.423    -2.581E-22
  53799.491    -3.466E-22
  53799.558    -2.965E-22
  53799.625    -3.094E-22
  53799.692    -2.718E-22
  53799.760    -1.834E-22
  53799.827    -6.922E-23
  53799.894    -5.619E-24
  53799.961     7.102E-23
  53800.029     1.945E-23
  53800.096    -7.030E-23
  53800.163    -9.606E-23
  53800.231    -1.345E-22
  53800.298    -2.109E-22
  53800.365    -2.745E-22
  53800.432    -3.755E-22
  53800.500    -3.884E-22
  53800.567    -4.012E-22
  53800.634    -3.386E-22
  53800.701    -2.632E-22
  53800.769    -1.621E-22
  53800.836    -7.326E-23
  53800.903     3.137E-24
  53800.970     5.414E-23
  53801.038     1.826E-22
  53801.105     2.211E-22
  53801.172     1.176E-22
  53801.240     1.460E-23
  53801.307    -4.962E-23
  53801.374    -7.542E-23
  53801.441    -3.739E-23
  53801.509     5.198E-23
  53801.576     3.888E-23
  53801.643     1.732E-25
  53801.710     6.401E-23
  53801.778     1.023E-22
  53801.845     1.020E-22
  53801.912    -7.758E-23
  53801.979    -1.397E-23
  53802.047     1.528E-22
  53802.114     3.859E-22
  53802.181     5.296E-22
  53802.249     5.425E-22
  53802.316     5.554E-22
  53802.383     5.551E-22
  53802.450     5.285E-22
  53802.518     4.104E-22
  53802.585     2.929E-22
  53802.652     2.149E-22
  53802.719     2.276E-22
  53802.787     3.963E-22
  53802.854     5.007E-22
  53802.921     4.480E-22
  53802.989     4.216E-22
  53803.056     2.651E-22
  53803.123     1.484E-22
  53803.190     8.378E-23
  53803.258     3.215E-23
  53803.325     1.905E-23
  53803.392     5.971E-24
  53803.459     1.852E-23
  53803.527     6.958E-23
  53803.594     1.798E-23
  53803.661     5.620E-23
  53803.729     2.365E-22
  53803.796     4.053E-22
  53803.863     3.789E-22
  53803.930     3.526E-22
  53803.998     2.873E-22
  53804.065     1.834E-22
  53804.132     9.287E-23
  53804.199    -7.398E-23
  53804.267    -2.015E-22
  53804.334    -1.891E-22
  53804.401    -2.147E-22
  53804.469    -2.909E-22
  53804.536    -2.659E-22
  53804.603    -2.155E-22
  53804.670    -1.650E-22
  53804.738    -2.503E-23
  53804.805     1.546E-22
  53804.872     2.838E-22
  53804.939     3.225E-22
  53805.007     4.135E-22
  53805.074     4.263E-22
  53805.141     4.653E-22
  53805.209     4.519E-22
  53805.276     2.562E-22
  53805.343    -1.848E-24
  53805.410    -9.159E-23
  53805.478     3.608E-23
  53805.545     6.149E-23
  53805.612     4.838E-23
  53805.680     4.811E-23
  53805.747     8.640E-23
  53805.814     9.078E-24
  53805.881     8.809E-24
  53805.949     3.419E-23
  53806.016     5.960E-23
  53806.083     3.365E-23
  53806.150     5.906E-23
  53806.218     8.451E-23
  53806.285     1.229E-22
  53806.352     7.111E-23
  53806.420     3.230E-23
  53806.487     6.381E-24
  53806.554     6.111E-24
  53806.621     9.576E-23
  53806.689     1.470E-22
  53806.756     1.726E-22
  53806.823     2.111E-22
  53806.891     2.109E-22
  53806.958     1.977E-22
  53807.025     1.328E-22
  53807.092     8.100E-23
  53807.160     1.651E-23
  53807.227    -4.779E-23
  53807.294    -6.085E-23
  53807.361     2.874E-24
  53807.429     1.543E-23
  53807.496     9.225E-23
  53807.563     2.730E-22
  53807.631     3.769E-22
  53807.698     3.114E-22
  53807.765     3.633E-22
  53807.832     3.630E-22
  53807.900     2.976E-22
  53807.967     1.936E-22
  53808.034     1.417E-22
  53808.102     8.982E-23
  53808.169    -1.318E-23
  53808.236     2.502E-23
  53808.303     5.043E-23
  53808.371     2.448E-23
  53808.438     2.421E-23
  53808.505     2.394E-23
  53808.573     4.935E-23
  53808.640     4.908E-23
  53808.707    -2.522E-24
  53808.774     1.003E-23
  53808.842     1.642E-22
  53808.909     3.457E-22
  53808.976     4.107E-22
  53809.044     3.451E-22
  53809.111     3.448E-22
  53809.178     2.146E-22
  53809.245    -4.681E-24
  53809.313    -1.776E-23
  53809.380    -6.921E-23
  53809.447    -6.948E-23
  53809.515     5.843E-23
  53809.582     1.484E-22
  53809.649     1.610E-22
  53809.716     1.220E-22
  53809.784     7.021E-23
  53809.851     1.854E-23
  53809.918    -4.580E-23
  53809.986     1.800E-23
  53810.053     8.200E-23
  53810.120     2.109E-22
  53810.187     2.235E-22
  53810.255     4.260E-23
  53810.322    -1.113E-22
  53810.389    -2.641E-22
  53810.457    -3.654E-22
  53810.524    -4.788E-22
  53810.591    -5.541E-22
  53810.658    -5.544E-22
  53810.726    -3.917E-22
  53810.793    -2.277E-22
  53810.860     5.303E-23
  53810.928     2.595E-22
  53810.995     2.722E-22
  53811.062     2.460E-22
  53811.129     2.847E-22
  53811.197     2.065E-22
  53811.264     2.322E-22
  53811.331     4.274E-22
  53811.399     5.584E-22
  53811.466     4.268E-22
  53811.533     4.004E-22
  53811.600     3.871E-22
  53811.668     3.216E-22
  53811.735     2.822E-22
  53811.802     2.560E-22
  53811.870     2.038E-22
  53811.937     4.249E-22
  53812.004     5.560E-22
  53812.072     4.637E-22
  53812.139     4.372E-22
  53812.206     5.157E-22
  53812.273     4.498E-22
  53812.341     3.449E-22
  53812.408     1.112E-22
  53812.475    -1.327E-22
  53812.543    -1.966E-22
  53812.610    -1.969E-22
  53812.677    -5.687E-23
  53812.744     1.744E-22
  53812.812     2.909E-22
  53812.879     3.689E-22
  53812.946     2.514E-22
  53813.014     9.588E-23
  53813.081    -5.849E-23
  53813.148    -1.481E-22
  53813.215    -1.101E-22
  53813.283     4.771E-24
  53813.350     4.501E-24
  53813.417     1.707E-23
  53813.485     1.327E-22
  53813.552     2.360E-22
  53813.619     1.839E-22
  53813.687     2.225E-22
  53813.754     2.092E-22
  53813.821     2.869E-22
  53813.888     4.171E-22
  53813.956     5.218E-22
  53814.023     6.271E-22
  53814.090     8.261E-22
  53814.158     8.660E-22
  53814.225     7.191E-22
  53814.292     5.468E-22
  53814.360     5.729E-22
  53814.427     5.990E-22
  53814.494     5.328E-22
  53814.561     4.537E-22
  53814.629     2.706E-22
  53814.696     2.314E-22
  53814.763     1.793E-22
  53814.831     1.920E-22
  53814.898     2.826E-22
  53814.965     2.953E-22
  53815.032     2.430E-22
  53815.100     1.909E-22
  53815.167     2.165E-22
  53815.234     3.203E-22
  53815.302     4.376E-22
  53815.369     4.899E-22
  53815.436     4.109E-22
  53815.504     2.541E-22
  53815.571     2.279E-22
  53815.638     2.536E-22
  53815.705     3.054E-22
  53815.773     3.703E-22
  53815.840     3.962E-22
  53815.907     3.959E-22
  53815.975     3.303E-22
  53816.042     2.780E-22
  53816.109     3.168E-22
  53816.177     3.035E-22
  53816.244     3.293E-22
  53816.311     4.074E-22
  53816.378     4.071E-22
  53816.446     4.068E-22
  53816.513     5.379E-22
  53816.580     6.963E-22
  53816.648     7.226E-22
  53816.715     7.490E-22
  53816.782     7.088E-22
  53816.850     6.158E-22
  53816.917     4.968E-22
  53816.984     3.524E-22
  53817.051     3.782E-22
  53817.119     3.780E-22
  53817.186     3.385E-22
  53817.253     2.601E-22
  53817.321     7.859E-23
  53817.388     1.397E-23
  53817.455     8.563E-25
  53817.523     2.628E-23
  53817.590     2.601E-23
  53817.657     4.533E-26
  53817.725     1.262E-23
  53817.792     3.806E-23
  53817.859     2.447E-22
  53817.926     4.140E-22
  53817.994     5.320E-22
  53818.061     6.639E-22
  53818.128     6.768E-22
  53818.196     6.766E-22
  53818.263     5.836E-22
  53818.330     4.386E-22
  53818.398     4.121E-22
  53818.465     3.987E-22
  53818.532     4.378E-22
  53818.599     6.220E-22
  53818.667     7.944E-22
  53818.734     9.012E-22
  53818.801     1.008E-21
  53818.869     1.035E-21
  53818.936     9.810E-22
  53819.003     9.001E-22
  53819.071     6.996E-22
  53819.138     5.933E-22
  53819.205     5.139E-22
  53819.273     4.611E-22
  53819.340     4.608E-22
  53819.407     5.790E-22
  53819.474     5.788E-22
  53819.542     6.314E-22
  53819.609     7.506E-22
  53819.676     7.504E-22
  53819.744     8.168E-22
  53819.811     8.700E-22
  53819.878     9.907E-22
  53819.946     9.769E-22
  53820.013     1.004E-21
  53820.080     1.220E-21
  53820.148     1.453E-21
  53820.215     1.772E-21
  53820.282     2.025E-21
  53820.349     2.324E-21
  53820.417     2.584E-21
  53820.484     2.744E-21
  53820.551     2.642E-21
  53820.619     2.438E-21
  53820.686     2.351E-21
  53820.753     2.337E-21
  53820.821     2.437E-21
  53820.888     2.611E-21
  53820.955     2.742E-21
  53821.023     2.742E-21
  53821.090     2.712E-21
  53821.157     2.668E-21
  53821.225     2.595E-21
  53821.292     2.421E-21
  53821.359     2.234E-21
  53821.426     2.162E-21
  53821.494     2.191E-21
  53821.561     2.091E-21
  53821.628     1.892E-21
  53821.696     1.668E-21
  53821.763     1.529E-21
  53821.830     1.418E-21
  53821.898     1.446E-21
  53821.965     1.542E-21
  53822.032     1.723E-21
  53822.100     1.848E-21
  53822.167     2.003E-21
  53822.234     1.989E-21
  53822.302     1.932E-21
  53822.369     2.002E-21
  53822.436     2.087E-21
  53822.503     2.186E-21
  53822.571     2.329E-21
  53822.638     2.257E-21
  53822.705     2.229E-21
  53822.773     2.257E-21
  53822.840     2.257E-21
  53822.907     2.285E-21
  53822.975     2.400E-21
  53823.042     2.602E-21
  53823.109     2.910E-21
  53823.177     3.208E-21
  53823.244     3.479E-21
  53823.311     3.723E-21
  53823.379     4.064E-21
  53823.446     4.586E-21
  53823.513     5.039E-21
  53823.581     5.519E-21
  53823.648     6.096E-21
  53823.715     6.708E-21
  53823.782     7.174E-21
  53823.850     7.651E-21
  53823.917     8.044E-21
  53823.984     8.253E-21
  53824.052     8.348E-21
  53824.119     8.386E-21
  53824.186     8.444E-21
  53824.254     8.482E-21
  53824.321     8.366E-21
  53824.388     7.891E-21
  53824.456     7.445E-21
  53824.523     6.936E-21
  53824.590     6.616E-21
  53824.658     6.283E-21
  53824.725     5.972E-21
  53824.792     5.716E-21
  53824.860     5.264E-21
  53824.927     4.564E-21
  53824.994     4.058E-21
  53825.062     3.762E-21
  53825.129     3.502E-21
  53825.196     3.260E-21
  53825.263     3.050E-21
  53825.331     2.872E-21
  53825.398     2.651E-21
  53825.465     2.520E-21
  53825.533     2.418E-21
  53825.600     2.375E-21
  53825.667     2.260E-21
  53825.735     2.102E-21
  53825.802     1.791E-21
  53825.869     1.513E-21
  53825.937     1.320E-21
  53826.004     1.101E-21
  53826.071     1.020E-21
  53826.139     1.019E-21
  53826.206     9.922E-22
  53826.273     8.307E-22
  53826.341     8.170E-22
  53826.408     9.106E-22
  53826.475     9.507E-22
  53826.543     1.031E-21
  53826.610     9.906E-22
  53826.677     8.290E-22
  53826.745     6.688E-22
  53826.812     5.625E-22
  53826.879     5.094E-22
  53826.947     3.908E-22
  53827.014     2.990E-22
  53827.081     1.427E-22
  53827.149     3.909E-23
  53827.216     1.292E-22
  53827.283     1.808E-22
  53827.351     1.416E-22
  53827.418     2.322E-22
  53827.485     4.412E-22
  53827.552     5.199E-22
  53827.620     6.652E-22
  53827.687     8.250E-22
  53827.754     8.113E-22
  53827.822     6.379E-22
  53827.889     3.609E-22
  53827.956     1.004E-22
  53828.024    -9.293E-23
  53828.091    -1.827E-22
  53828.158    -5.500E-23
  53828.226     1.122E-22
  53828.293     2.808E-22
  53828.360     3.852E-22
  53828.428     3.980E-22
  53828.495     4.108E-22
  53828.562     2.797E-22
  53828.630     1.754E-22
  53828.697     1.751E-22
  53828.764     1.619E-22
  53828.832     9.686E-23
  53828.899    -1.945E-23
  53828.966    -1.479E-22
  53829.034    -1.482E-22
  53829.101     3.123E-23
  53829.168     2.512E-22
  53829.236     2.379E-22
  53829.303     1.727E-22
  53829.370     8.177E-23
  53829.438     4.277E-23
  53829.505     1.849E-22
  53829.572     2.626E-22
  53829.640     2.885E-22
  53829.707     2.491E-22
  53829.774     1.578E-22
  53829.842     1.446E-22
  53829.909     3.004E-22
  53829.976     3.656E-22
  53830.044     3.391E-22
  53830.111     1.954E-22
  53830.178     3.979E-23
  53830.246    -1.403E-22
  53830.313    -1.277E-22
  53830.380     6.479E-23
  53830.448     2.852E-22
  53830.515     4.553E-22
  53830.582     4.945E-22
  53830.650     4.943E-22
  53830.717     3.757E-22
  53830.784     1.019E-22
  53830.852    -1.043E-22
  53830.919    -2.450E-22
  53830.986    -2.198E-22
  53831.054    -1.691E-22
  53831.121    -5.409E-23
  53831.188     1.003E-22
  53831.256     8.711E-23
  53831.323     3.518E-23
  53831.390     4.781E-23
  53831.458     8.629E-23
  53831.525     1.248E-22
  53831.592     1.246E-22
  53831.660     1.114E-22
  53831.727     7.779E-24
  53831.794    -3.110E-23
  53831.862    -1.851E-23
  53831.929    -4.450E-23
  53831.996    -8.328E-23
  53832.064    -9.637E-23
  53832.131    -1.606E-22
  53832.198    -1.609E-22
  53832.266    -7.153E-23
  53832.333    -7.181E-23
  53832.400    -7.809E-24
  53832.468     4.348E-23
  53832.535     3.030E-23
  53832.602     1.714E-23
  53832.670    -8.599E-23
  53832.737    -2.014E-22
  53832.804    -2.653E-22
  53832.872    -2.783E-22
  53832.939    -1.639E-22
  53833.006     2.628E-24
  53833.074     1.704E-23
  53833.141    -5.825E-23
  53833.208    -4.255E-23
  53833.276     8.132E-23
  53833.343     1.064E-22
  53833.410     1.134E-22
  53833.478     3.271E-23
  53833.545    -1.399E-22
  53833.612    -3.277E-22
  53833.680    -4.158E-22
  53833.747    -3.634E-22
  53833.814    -2.940E-22
  53833.882    -3.051E-22
  53833.949    -1.818E-22
  53834.016    -1.822E-22
  53834.084    -2.052E-22
  53834.151    -2.065E-22
  53834.218    -2.238E-22
  53834.286    -2.113E-22
  53834.353    -1.169E-22
  53834.420     1.854E-22
  53834.488     3.696E-22
  53834.555     4.747E-22
  53834.623     4.345E-22
  53834.690     3.757E-22
  53834.757     2.886E-22
  53834.825     2.196E-22
  53834.892     1.557E-22
  53834.959     9.734E-23
  53835.027     5.686E-23
  53835.094     6.357E-23
  53835.161     2.490E-23
  53835.229    -3.434E-23
  53835.296    -1.893E-23
  53835.363     2.162E-23
  53835.431     1.163E-22
  53835.498     2.672E-22
  53835.565     4.349E-22
  53835.633     5.045E-22
  53835.700     4.196E-22
  53835.767     2.535E-22
  53835.835     7.841E-23
  53835.902    -5.312E-23
  53835.969    -2.384E-22
  53836.037    -4.121E-22
  53836.104    -5.022E-22
  53836.171    -4.088E-22
  53836.239    -1.732E-22
  53836.306    -3.546E-23
  53836.373     8.973E-23
  53836.441     2.417E-22
  53836.508     3.139E-22
  53836.575     2.937E-22
  53836.643     1.961E-22
  53836.710     1.955E-22
  53836.778     2.843E-22
  53836.845     3.439E-22
  53836.912     4.220E-22
  53836.980     5.196E-22
  53837.047     6.405E-22
  53837.114     6.921E-22
  53837.182     6.871E-22
  53837.249     6.956E-22
  53837.316     5.674E-22
  53837.384     3.908E-22
  53837.451     1.966E-22
  53837.518    -8.629E-24
  53837.586    -4.738E-23
  53837.653    -9.069E-23
  53837.720    -5.531E-23
  53837.788    -1.975E-23
  53837.855     8.898E-23
  53837.922     4.938E-23
  53837.990     1.162E-22
  53838.057     1.998E-22
  53838.124     2.948E-22
  53838.192     3.586E-22
  53838.259     2.750E-22
  53838.327     4.020E-22
  53838.394     4.310E-22
  53838.461     4.119E-22
  53838.529     2.725E-22
  53838.596     1.974E-22
  53838.663     2.116E-22
  53838.731     1.580E-22
  53838.798     1.911E-22
  53838.865     3.397E-22
  53838.933     3.188E-22
  53839.000     3.364E-22
  53839.067     4.075E-22
  53839.135     2.472E-22
  53839.202     1.294E-22
  53839.269     2.889E-22
  53839.337     3.713E-22
  53839.404     4.650E-22
  53839.471     4.932E-22
  53839.539     3.124E-22
  53839.606     1.688E-22
  53839.674     5.031E-23
  53839.741    -9.438E-23
  53839.808    -1.882E-22
  53839.876    -1.363E-22
  53839.943    -6.989E-23
  53840.010    -6.589E-23
  53840.078    -9.009E-23
  53840.145    -2.333E-22
  53840.212    -2.517E-22
  53840.280    -1.991E-22
  53840.347    -1.967E-22
  53840.414    -3.198E-22
  53840.482    -4.517E-22
  53840.549    -3.797E-22
  53840.617    -2.021E-22
  53840.684    -7.415E-23
  53840.751     8.445E-23
  53840.819     1.939E-22
  53840.886     3.515E-22
  53840.953     4.684E-22
  53841.021     4.674E-22
  53841.088     3.576E-22
  53841.155     1.316E-22
  53841.223    -1.352E-23
  53841.290    -3.910E-23
  53841.357    -8.700E-23
  53841.425    -1.557E-22
  53841.492    -1.423E-22
  53841.559    -2.781E-23
  53841.627     3.783E-23
  53841.694     6.990E-23
  53841.762     1.271E-22
  53841.829     1.962E-22
  53841.896     3.582E-22
  53841.964     4.788E-22
  53842.031     5.547E-22
  53842.098     7.211E-22
  53842.166     7.948E-22
  53842.233     8.236E-22
  53842.300     8.226E-22
  53842.368     7.152E-22
  53842.435     4.543E-22
  53842.503     1.658E-22
  53842.570    -4.545E-23
  53842.637     3.319E-24
  53842.705     1.082E-22
  53842.772     1.044E-22
  53842.839     5.785E-23
  53842.907     8.694E-23
  53842.974     7.208E-23
  53843.041     1.657E-23
  53843.109     1.663E-24
  53843.176    -1.264E-23
  53843.243    -2.660E-23
  53843.311    -1.721E-23
  53843.378     1.798E-23
  53843.446    -8.422E-23
  53843.513    -1.140E-22
  53843.580    -1.241E-23
  53843.648     1.665E-22
  53843.715     2.384E-22
  53843.782     3.004E-22
  53843.850     3.268E-22
  53843.917     3.830E-22
  53843.984     3.412E-22
  53844.052     2.694E-22
  53844.119     2.708E-22
  53844.187     1.757E-22
  53844.254     1.102E-22
  53844.321     1.879E-22
  53844.389     2.491E-22
  53844.456     1.226E-22
  53844.523     3.282E-23
  53844.591    -5.520E-23
  53844.658    -5.647E-23
  53844.725     6.366E-23
  53844.793     2.450E-22
  53844.860     3.823E-22
  53844.928     3.608E-22
  53844.995     2.019E-22
  53845.062    -2.643E-23
  53845.130    -1.900E-22
  53845.197    -2.176E-22
  53845.264    -1.050E-22
  53845.332     4.745E-23
  53845.399     1.746E-22
  53845.466     2.707E-22
  53845.534     2.929E-22
  53845.601     3.964E-22
  53845.669     3.482E-22
  53845.736     2.195E-22
  53845.803     7.935E-23
  53845.871     6.254E-23
  53845.938     5.882E-23
  53846.005     1.503E-22
  53846.073     1.714E-22
  53846.140     2.316E-22
  53846.207     4.227E-22
  53846.275     5.776E-22
  53846.342     6.370E-22
  53846.410     5.245E-22
  53846.477     4.436E-22
  53846.544     3.200E-22
  53846.612     1.655E-22
  53846.679     9.782E-23
  53846.746     7.567E-23
  53846.814     1.955E-22
  53846.881     3.265E-22
  53846.949     4.830E-22
  53847.016     6.786E-22
  53847.083     6.437E-22
  53847.151     5.051E-22
  53847.218     3.218E-22
  53847.285     1.930E-22
  53847.353     2.395E-22
  53847.420     2.874E-22
  53847.487     3.624E-22
  53847.555     5.311E-22
  53847.622     5.803E-22
  53847.690     7.012E-22
  53847.757     5.959E-22
  53847.824     4.232E-22
  53847.892     2.258E-22
  53847.959     9.304E-23
  53848.026     8.203E-23
  53848.094     5.417E-23
  53848.161     4.792E-23
  53848.229     1.469E-23
  53848.296    -1.891E-23
  53848.363    -3.157E-23
  53848.431    -6.287E-24
  53848.498     1.585E-23
  53848.565     2.482E-23
  53848.633     5.209E-23
  53848.700     1.956E-22
  53848.768     3.429E-22
  53848.835     3.354E-22
  53848.902     2.118E-22
  53848.970     1.867E-22
  53849.037     2.464E-22
  53849.104     3.206E-22
  53849.172     3.139E-22
  53849.239     2.690E-22
  53849.307     2.475E-22
  53849.374     1.437E-22
  53849.441     6.261E-23
  53849.509    -1.651E-23
  53849.576    -7.279E-23
  53849.643     4.502E-23
  53849.711     2.174E-22
  53849.778     3.845E-22
  53849.846     4.259E-22
  53849.913     4.210E-22
  53849.980     3.661E-22
  53850.048     2.983E-22
  53850.115     2.609E-22
  53850.182     3.143E-22
  53850.250     4.779E-22
  53850.317     5.300E-22
  53850.385     4.204E-22
  53850.452     2.724E-22
  53850.519     2.352E-22
  53850.587     3.040E-22
  53850.654     3.332E-22
  53850.721     4.064E-22
  53850.789     3.242E-22
  53850.856     2.142E-22
  53850.924     1.091E-22
  53850.991     1.297E-23
  53851.058    -6.952E-23
  53851.126    -1.460E-22
  53851.193    -5.581E-23
  53851.260     7.525E-23
  53851.328     2.498E-22
  53851.395     4.376E-22
  53851.463     5.187E-22
  53851.530     5.174E-22
  53851.597     3.228E-22
  53851.665     1.960E-22
  53851.732     1.460E-22
  53851.799     1.667E-22
  53851.867     2.855E-22
  53851.934     3.149E-22
  53852.002     1.774E-22
  53852.069     1.062E-22
  53852.136     1.395E-22
  53852.204     2.959E-22
  53852.271     3.463E-22
  53852.339     4.378E-22
  53852.406     4.841E-22
  53852.473     4.766E-22
  53852.541     4.575E-22
  53852.608     4.514E-22
  53852.675     4.802E-22
  53852.743     5.972E-22
  53852.810     6.968E-22
  53852.878     6.825E-22
  53852.945     7.088E-22
  53853.012     7.027E-22
  53853.080     6.936E-22
  53853.147     7.152E-22
  53853.214     7.768E-22
  53853.282     8.120E-22
  53853.349     8.043E-22
  53853.417     7.126E-22
  53853.484     6.303E-22
  53853.551     7.113E-22
  53853.619     6.578E-22
  53853.686     6.503E-22
  53853.754     6.955E-22
  53853.821     7.388E-22
  53853.888     8.551E-22
  53853.956     9.138E-22
  53854.023     8.229E-22
  53854.090     6.935E-22
  53854.158     6.750E-22
  53854.225     7.266E-22
  53854.293     7.816E-22
  53854.360     8.238E-22
  53854.427     8.571E-22
  53854.495     8.224E-22
  53854.562     9.232E-22
  53854.630     1.032E-21
  53854.697     1.082E-21
  53854.764     1.086E-21
  53854.832     1.141E-21
  53854.899     1.145E-21
  53854.966     1.114E-21
  53855.034     1.164E-21
  53855.101     1.248E-21
  53855.169     1.339E-21
  53855.236     1.350E-21
  53855.303     1.463E-21
  53855.371     1.682E-21
  53855.438     1.963E-21
  53855.506     2.208E-21
  53855.573     2.405E-21
  53855.640     2.646E-21
  53855.708     2.935E-21
  53855.775     3.275E-21
  53855.843     3.469E-21
  53855.910     3.544E-21
  53855.977     3.623E-21
  53856.045     3.713E-21
  53856.112     3.943E-21
  53856.179     4.339E-21
  53856.247     4.831E-21
  53856.314     5.501E-21
  53856.382     6.173E-21
  53856.449     6.739E-21
  53856.516     7.211E-21
  53856.584     7.651E-21
  53856.651     8.231E-21
  53856.719     8.635E-21
  53856.786     8.906E-21
  53856.853     9.281E-21
  53856.921     9.567E-21
  53856.988     9.773E-21
  53857.056     9.832E-21
  53857.123     9.834E-21
  53857.190     9.633E-21
  53857.258     9.313E-21
  53857.325     8.896E-21
  53857.393     8.504E-21
  53857.460     8.213E-21
  53857.527     7.909E-21
  53857.595     7.723E-21
  53857.662     7.591E-21
  53857.729     7.387E-21
  53857.797     7.154E-21
  53857.864     6.994E-21
  53857.932     6.783E-21
  53857.999     6.554E-21
  53858.066     6.410E-21
  53858.134     6.406E-21
  53858.201     6.334E-21
  53858.269     6.228E-21
  53858.336     6.369E-21
  53858.403     6.594E-21
  53858.471     6.691E-21
  53858.538     6.754E-21
  53858.606     7.109E-21
  53858.673     7.559E-21
  53858.740     8.040E-21
  53858.808     8.438E-21
  53858.875     9.639E-21
  53858.943     1.038E-20
  53859.010     1.121E-20
  53859.077     1.211E-20
  53859.145     1.305E-20
  53859.212     1.412E-20
  53859.280     1.521E-20
  53859.347     1.628E-20
  53859.414     1.746E-20
  53859.482     1.971E-20
  53859.549     2.093E-20
  53859.617     2.189E-20
  53859.684     2.258E-20
  53859.751     2.328E-20
  53859.819     2.373E-20
  53859.886     2.401E-20
  53859.954     2.405E-20
  53860.021     2.403E-20
  53860.088     2.371E-20
  53860.156     2.324E-20
  53860.223     2.237E-20
  53860.291     2.114E-20
  53860.358     2.038E-20
  53860.425     1.916E-20
  53860.493     1.792E-20
  53860.560     1.680E-20
  53860.628     1.573E-20
  53860.695     1.468E-20
  53860.762     1.347E-20
  53860.830     1.236E-20
  53860.897     1.138E-20
  53860.965     1.058E-20
  53861.032     1.037E-20
  53861.099     9.558E-21
  53861.167     8.814E-21
  53861.234     8.037E-21
  53861.302     7.391E-21
  53861.369     6.887E-21
  53861.436     6.431E-21
  53861.504     6.062E-21
  53861.571     5.642E-21
  53861.639     5.210E-21
  53861.706     4.843E-21
  53861.773     4.481E-21
  53861.841     4.202E-21
  53861.908     4.100E-21
  53861.976     3.994E-21
  53862.043     3.693E-21
  53862.110     3.352E-21
  53862.178     3.193E-21
  53862.245     3.034E-21
  53862.313     3.002E-21
  53862.380     2.955E-21
  53862.447     2.669E-21
  53862.515     2.278E-21
  53862.582     1.963E-21
  53862.650     1.810E-21
  53862.717     1.796E-21
  53862.784     1.930E-21
  53862.852     1.930E-21
  53862.919     1.723E-21
  53862.987     1.567E-21
  53863.054     1.386E-21
  53863.121     1.212E-21
  53863.189     1.052E-21
  53863.256     9.204E-22
  53863.324     8.706E-22
  53863.391     8.910E-22
  53863.458     9.624E-22
  53863.526     1.003E-21
  53863.593     9.426E-22
  53863.661     9.086E-22
  53863.728     9.400E-22
  53863.795     9.771E-22
  53863.863     1.047E-21
  53863.930     1.035E-21
  53863.998     8.657E-22
  53864.065     8.144E-22
  53864.132     7.525E-22
  53864.200     7.807E-22
  53864.267     8.004E-22
  53864.335     7.111E-22
  53864.402     3.978E-22
  53864.470     8.343E-23
  53864.537    -7.435E-23
  53864.604     2.955E-23
  53864.672     2.904E-22
  53864.739     4.011E-22
  53864.807     4.881E-22
  53864.874     5.660E-22
  53864.941     5.448E-22
  53865.009     4.541E-22
  53865.076     3.843E-22
  53865.144     3.101E-22
  53865.211     4.184E-22
  53865.278     4.923E-22
  53865.346     4.315E-22
  53865.413     3.667E-22
  53865.481     3.699E-22
  53865.548     3.458E-22
  53865.615     4.245E-22
  53865.683     4.801E-22
  53865.750     4.490E-22
  53865.818     5.230E-22
  53865.885     6.313E-22
  53865.953     5.915E-22
  53866.020     5.138E-22
  53866.087     5.061E-22
  53866.155     4.640E-22
  53866.222     4.206E-22
  53866.290     3.562E-22
  53866.357     2.839E-22
  53866.424     3.282E-22
  53866.492     3.102E-22
  53866.559     3.189E-22
  53866.627     3.376E-22
  53866.694     3.926E-22
  53866.761     4.650E-22
  53866.829     5.350E-22
  53866.896     5.366E-22
  53866.964     4.865E-22
  53867.031     5.674E-22
  53867.099     5.150E-22
  53867.166     4.221E-22
  53867.233     4.547E-22
  53867.301     4.470E-22
  53867.368     5.348E-22
  53867.436     5.911E-22
  53867.503     6.162E-22
  53867.570     6.598E-22
  53867.638     6.122E-22
  53867.705     5.192E-22
  53867.773     5.974E-22
  53867.840     6.804E-22
  53867.908     6.850E-22
  53867.975     6.934E-22
  53868.042     7.649E-22
  53868.110     7.561E-22
  53868.177     6.696E-22
  53868.245     6.078E-22
  53868.312     5.316E-22
  53868.379     4.452E-22
  53868.447     3.938E-22
  53868.514     3.696E-22
  53868.582     3.418E-22
  53868.649     4.178E-22
  53868.717     5.212E-22
  53868.784     4.937E-22
  53868.851     4.043E-22
  53868.919     2.839E-22
  53868.986     1.478E-22
  53869.054     1.389E-22
  53869.121     1.144E-22
  53869.188     7.276E-23
  53869.256     1.346E-22
  53869.323     2.328E-22
  53869.391     2.197E-22
  53869.458     1.855E-22
  53869.526     1.761E-22
  53869.593     2.389E-22
  53869.660     2.866E-22
  53869.728     4.696E-22
  53869.795     6.810E-22
  53869.863     8.538E-22
  53869.930     9.199E-22
  53869.997     8.866E-22
  53870.065     7.192E-22
  53870.132     5.349E-22
  53870.200     4.304E-22
  53870.267     4.395E-22
  53870.335     4.964E-22
  53870.402     4.447E-22
  53870.469     4.786E-22
  53870.537     4.774E-22
  53870.604     4.319E-22
  53870.672     3.728E-22
  53870.739     4.516E-22
  53870.807     3.889E-22
  53870.874     3.827E-22
  53870.941     4.160E-22
  53871.009     3.807E-22
  53871.076     3.825E-22
  53871.144     3.909E-22
  53871.211     3.713E-22
  53871.278     4.846E-22
  53871.346     5.778E-22
  53871.413     6.661E-22
  53871.481     5.336E-22
  53871.548     3.867E-22
  53871.616     3.562E-22
  53871.683     2.567E-22
  53871.750     2.783E-22
  53871.818     4.132E-22
  53871.885     5.211E-22
  53871.953     6.451E-22
  53872.020     5.733E-22
  53872.088     5.429E-22
  53872.155     5.326E-22
  53872.222     4.634E-22
  53872.290     5.373E-22
  53872.357     5.820E-22
  53872.425     5.212E-22
  53872.492     4.665E-22
  53872.560     3.824E-22
  53872.627     4.261E-22
  53872.694     5.900E-22
  53872.762     6.394E-22
  53872.829     5.887E-22
  53872.897     5.535E-22
  53872.964     4.941E-22
  53873.032     4.642E-22
  53873.099     4.626E-22
  53873.166     4.680E-22
  53873.234     4.161E-22
  53873.301     2.658E-22
  53873.369     1.966E-22
  53873.436     1.305E-22
  53873.504     9.369E-23
  53873.571     1.114E-22
  53873.638     1.034E-22
  53873.706     8.844E-23
  53873.773     8.747E-24
  53873.841    -1.075E-22
  53873.908     2.592E-25
  53873.976     1.569E-22
  53874.043     8.212E-23
  53874.110    -5.019E-25
  53874.178    -2.841E-23
  53874.245     3.470E-23
  53874.313     1.129E-22
  53874.380     1.634E-22
  53874.448     3.039E-22
  53874.515     3.150E-22
  53874.582     2.368E-22
  53874.650     2.059E-22
  53874.717     2.950E-22
  53874.785     1.858E-22
  53874.852     8.746E-23
  53874.920     1.664E-22
  53874.987     2.291E-22
  53875.054     2.935E-22
  53875.122     4.044E-22
  53875.189     4.868E-22
  53875.257     5.099E-22
  53875.324     5.339E-22
  53875.392     4.805E-22
  53875.459     4.934E-22
  53875.526     5.662E-22
  53875.594     5.095E-22
  53875.661     2.887E-22
  53875.729     1.088E-22
  53875.796     1.634E-22
  53875.864     2.253E-22
  53875.931     1.604E-22
  53875.998     2.055E-22
  53876.066     3.717E-22
  53876.133     4.140E-22
  53876.201     4.571E-22
  53876.268     4.669E-22
  53876.336     5.145E-22
  53876.403     5.494E-22
  53876.471     5.460E-22
  53876.538     5.584E-22
  53876.605     5.443E-22
  53876.673     5.421E-22
  53876.740     4.363E-22
  53876.808     2.661E-22
  53876.875     2.397E-22
  53876.943     1.595E-22
  53877.010     1.462E-22
  53877.077     2.544E-22
  53877.145     4.062E-22
  53877.212     5.810E-22
  53877.280     6.860E-22
  53877.347     5.613E-22
  53877.415     5.576E-22
  53877.482     6.332E-22
  53877.549     7.448E-22
  53877.617     8.308E-22
  53877.684     7.594E-22
  53877.752     6.138E-22
  53877.819     5.921E-22
  53877.887     5.965E-22
  53877.954     5.996E-22
  53878.022     5.187E-22
  53878.089     4.363E-22
  53878.156     4.005E-22
  53878.224     4.609E-22
  53878.291     5.814E-22
  53878.359     5.940E-22
  53878.426     6.495E-22
  53878.494     7.026E-22
  53878.561     7.530E-22
  53878.628     8.033E-22
  53878.696     8.119E-22
  53878.763     7.688E-22
  53878.831     7.290E-22
  53878.898     5.678E-22
  53878.966     4.514E-22
  53879.033     4.069E-22
  53879.101     4.548E-22
  53879.168     5.138E-22
  53879.235     5.910E-22
  53879.303     6.204E-22
  53879.370     6.975E-22
  53879.438     8.131E-22
  53879.505     8.768E-22
  53879.573     7.996E-22
  53879.640     6.883E-22
  53879.708     5.740E-22
  53879.775     3.807E-22
  53879.842     4.691E-22
  53879.910     6.765E-22
  53879.977     7.511E-22
  53880.045     8.339E-22
  53880.112     8.420E-22
  53880.180     8.359E-22
  53880.247     9.593E-22
  53880.315     8.195E-22
  53880.382     6.708E-22
  53880.449     5.011E-22
  53880.517     4.008E-22
  53880.584     4.079E-22
  53880.652     4.869E-22
  53880.719     6.288E-22
  53880.787     8.395E-22
  53880.854     9.714E-22
  53880.922     9.353E-22
  53880.989     8.747E-22
  53881.056     8.614E-22
  53881.124     9.620E-22
  53881.191     1.019E-21
  53881.259     1.031E-21
  53881.326     9.878E-22
  53881.394     9.279E-22
  53881.461     9.723E-22
  53881.529     1.033E-21
  53881.596     1.088E-21
  53881.663     1.206E-21
  53881.731     1.323E-21
  53881.798     1.282E-21
  53881.866     1.061E-21
  53881.933     8.437E-22
  53882.001     8.039E-22
  53882.068     8.920E-22
  53882.136     9.995E-22
  53882.203     1.014E-21
  53882.270     1.073E-21
  53882.338     1.151E-21
  53882.405     1.133E-21
  53882.473     1.101E-21
  53882.540     9.766E-22
  53882.608     8.968E-22
  53882.675     1.035E-21
  53882.743     1.187E-21
  53882.810     1.339E-21
  53882.877     1.405E-21
  53882.945     1.280E-21
  53883.012     1.165E-21
  53883.080     1.091E-21
  53883.147     9.546E-22
  53883.215     9.040E-22
  53883.282     9.555E-22
  53883.350     1.016E-21
  53883.417     1.109E-21
  53883.485     1.223E-21
  53883.552     1.325E-21
  53883.619     1.455E-21
  53883.687     1.550E-21
  53883.754     1.558E-21
  53883.822     1.471E-21
  53883.889     1.318E-21
  53883.957     1.199E-21
  53884.024     1.122E-21
  53884.092     1.165E-21
  53884.159     1.261E-21
  53884.226     1.319E-21
  53884.294     1.451E-21
  53884.361     1.565E-21
  53884.429     1.533E-21
  53884.496     1.508E-21
  53884.564     1.575E-21
  53884.631     1.608E-21
  53884.699     1.633E-21
  53884.766     1.864E-21
  53884.834     2.005E-21
  53884.901     2.024E-21
  53884.968     2.113E-21
  53885.036     2.254E-21
  53885.103     2.356E-21
  53885.171     2.474E-21
  53885.238     2.537E-21
  53885.306     2.645E-21
  53885.373     2.743E-21
  53885.441     2.855E-21
  53885.508     3.001E-21
  53885.576     3.225E-21
  53885.643     3.439E-21
  53885.710     3.547E-21
  53885.778     3.536E-21
  53885.845     3.574E-21
  53885.913     3.623E-21
  53885.980     3.823E-21
  53886.048     4.162E-21
  53886.115     4.411E-21
  53886.183     4.776E-21
  53886.250     5.168E-21
  53886.318     5.501E-21
  53886.385     5.999E-21
  53886.452     6.390E-21
  53886.520     6.727E-21
  53886.587     6.928E-21
  53886.655     7.414E-21
  53886.722     7.868E-21
  53886.790     8.384E-21
  53886.857     1.016E-20
  53886.925     1.125E-20
  53886.992     1.245E-20
  53887.060     1.367E-20
  53887.127     1.504E-20
  53887.195     1.640E-20
  53887.262     1.774E-20
  53887.329     1.998E-20
  53887.397     2.150E-20
  53887.464     2.312E-20
  53887.532     2.471E-20
  53887.599     2.614E-20
  53887.667     2.733E-20
  53887.734     2.835E-20
  53887.802     2.883E-20
  53887.869     2.883E-20
  53887.937     2.853E-20
  53888.004     2.802E-20
  53888.071     2.760E-20
  53888.139     2.707E-20
  53888.206     2.636E-20
  53888.274     2.544E-20
  53888.341     2.451E-20
  53888.409     2.368E-20
  53888.476     2.290E-20
  53888.544     2.220E-20
  53888.611     2.173E-20
  53888.679     2.177E-20
  53888.746     2.194E-20
  53888.814     2.214E-20
  53888.881     2.246E-20
  53888.948     2.299E-20
  53889.016     2.337E-20
  53889.083     2.366E-20
  53889.151     2.428E-20
  53889.218     2.520E-20
  53889.286     2.672E-20
  53889.353     2.867E-20
  53889.421     3.090E-20
  53889.488     3.341E-20
  53889.556     3.720E-20
  53889.623     4.045E-20
  53889.691     4.362E-20
  53889.758     5.056E-20
  53889.825     5.350E-20
  53889.893     5.576E-20
  53889.960     5.703E-20
  53890.028     5.745E-20
  53890.095     5.760E-20
  53890.163     5.682E-20
  53890.230     5.548E-20
  53890.298     5.321E-20
  53890.365     5.059E-20
  53890.433     4.786E-20
  53890.500     4.503E-20
  53890.568     4.205E-20
  53890.635     3.920E-20
  53890.703     3.808E-20
  53890.770     3.685E-20
  53890.837     3.428E-20
  53890.905     3.172E-20
  53890.972     2.910E-20
  53891.040     2.667E-20
  53891.107     2.429E-20
  53891.175     2.223E-20
  53891.242     2.045E-20
  53891.310     1.909E-20
  53891.377     1.773E-20
  53891.445     1.639E-20
  53891.512     1.523E-20
  53891.580     1.419E-20
  53891.647     1.336E-20
  53891.715     1.272E-20
  53891.782     1.198E-20
  53891.849     1.111E-20
  53891.917     1.036E-20
  53891.984     1.039E-20
  53892.052     9.753E-21
  53892.119     9.322E-21
  53892.187     8.821E-21
  53892.254     8.328E-21
  53892.322     7.784E-21
  53892.389     7.283E-21
  53892.457     6.879E-21
  53892.524     6.492E-21
  53892.592     6.223E-21
  53892.659     5.953E-21
  53892.727     5.617E-21
  53892.794     5.148E-21
  53892.862     4.834E-21
  53892.929     4.516E-21
  53892.996     4.177E-21
  53893.064     3.996E-21
  53893.131     3.892E-21
  53893.199     3.782E-21
  53893.266     3.714E-21
  53893.334     3.510E-21
  53893.401     3.269E-21
  53893.469     3.085E-21
  53893.536     2.936E-21
  53893.604     2.790E-21
  53893.671     2.673E-21
  53893.739     2.780E-21
  53893.806     2.780E-21
  53893.874     2.738E-21
  53893.941     2.716E-21
  53894.009     2.708E-21
  53894.076     2.785E-21
  53894.144     2.735E-21
  53894.211     2.569E-21
  53894.278     2.462E-21
  53894.346     2.347E-21
  53894.413     2.274E-21
  53894.481     2.264E-21
  53894.548     2.176E-21
  53894.616     2.038E-21
  53894.683     1.905E-21
  53894.751     1.825E-21
  53894.818     1.805E-21
  53894.886     1.770E-21
  53894.953     1.815E-21
  53895.021     1.929E-21
  53895.088     1.884E-21
  53895.156     1.813E-21
  53895.223     1.812E-21
  53895.291     1.860E-21
  53895.358     1.870E-21
  53895.426     1.873E-21
  53895.493     1.888E-21
  53895.561     1.884E-21
  53895.628     1.796E-21
  53895.695     1.601E-21
  53895.763     1.505E-21
  53895.830     1.412E-21
  53895.898     1.443E-21
  53895.965     1.486E-21
  53896.033     1.406E-21
  53896.100     1.323E-21
  53896.168     1.310E-21
  53896.235     1.412E-21
  53896.303     1.537E-21
  53896.370     1.632E-21
  53896.438     1.689E-21
  53896.505     1.657E-21
  53896.573     1.546E-21
  53896.640     1.541E-21
  53896.708     1.424E-21
  53896.775     1.222E-21
  53896.843     1.157E-21
  53896.910     1.170E-21
  53896.978     1.129E-21
  53897.045     1.111E-21
  53897.113     1.069E-21
  53897.180     1.090E-21
  53897.247     1.243E-21
  53897.315     1.301E-21
  53897.382     1.328E-21
  53897.450     1.278E-21
  53897.517     1.216E-21
  53897.585     1.110E-21
  53897.652     1.066E-21
  53897.720     1.048E-21
  53897.787     1.024E-21
  53897.855     1.030E-21
  53897.922     1.071E-21
  53897.990     1.125E-21
  53898.057     1.148E-21
  53898.125     1.128E-21
  53898.192     1.029E-21
  53898.260     9.942E-22
  53898.327     1.015E-21
  53898.395     1.125E-21
  53898.462     1.331E-21
  53898.530     1.455E-21
  53898.597     1.478E-21
  53898.665     1.417E-21
  53898.732     1.322E-21
  53898.800     1.300E-21
  53898.867     1.248E-21
  53898.935     1.161E-21
  53899.002     1.095E-21
  53899.070     9.884E-22
  53899.137     9.718E-22
  53899.204     1.097E-21
  53899.272     1.109E-21
  53899.339     1.150E-21
  53899.407     1.161E-21
  53899.474     1.028E-21
  53899.542     9.540E-22
  53899.609     1.058E-21
  53899.677     1.043E-21
  53899.744     9.732E-22
  53899.812     1.175E-21
  53899.879     1.338E-21
  53899.947     1.365E-21
  53900.014     1.356E-21
  53900.082     1.243E-21
  53900.149     1.147E-21
  53900.217     1.062E-21
  53900.284     9.949E-22
  53900.352     8.143E-22
  53900.419     6.732E-22
  53900.487     5.318E-22
  53900.554     5.633E-22
  53900.622     7.422E-22
  53900.689     8.716E-22
  53900.757     9.665E-22
  53900.824     8.736E-22
  53900.892     8.254E-22
  53900.959     8.816E-22
  53901.027     9.052E-22
  53901.094     9.407E-22
  53901.162     1.019E-21
  53901.229     9.920E-22
  53901.297     8.522E-22
  53901.364     8.378E-22
  53901.432     1.006E-21
  53901.499     1.165E-21
  53901.567     1.218E-21
  53901.634     1.342E-21
  53901.702     1.407E-21
  53901.769     1.511E-21
  53901.837     1.680E-21
  53901.904     1.688E-21
  53901.972     1.552E-21
  53902.039     1.346E-21
  53902.107     1.183E-21
  53902.174     1.090E-21
  53902.241     1.011E-21
  53902.309     9.652E-22
  53902.376     1.075E-21
  53902.444     1.160E-21
  53902.511     1.144E-21
  53902.579     9.937E-22
  53902.646     9.842E-22
  53902.714     9.604E-22
  53902.781     9.840E-22
  53902.849     1.103E-21
  53902.916     1.208E-21
  53902.984     1.338E-21
  53903.051     1.381E-21
  53903.119     1.394E-21
  53903.186     1.435E-21
  53903.254     1.377E-21
  53903.321     1.265E-21
  53903.389     1.201E-21
  53903.456     1.201E-21
  53903.524     1.220E-21
  53903.591     1.237E-21
  53903.659     1.206E-21
  53903.726     1.236E-21
  53903.794     1.349E-21
  53903.861     1.382E-21
  53903.929     1.375E-21
  53903.996     1.348E-21
  53904.064     1.292E-21
  53904.131     1.248E-21
  53904.199     1.343E-21
  53904.266     1.401E-21
  53904.334     1.347E-21
  53904.401     1.233E-21
  53904.469     1.108E-21
  53904.536     1.037E-21
  53904.604     1.068E-21
  53904.671     1.158E-21
  53904.739     1.120E-21
  53904.806     1.115E-21
  53904.874     1.174E-21
  53904.941     1.161E-21
  53905.009     1.335E-21
  53905.076     1.417E-21
  53905.144     1.457E-21
  53905.211     1.545E-21
  53905.279     1.566E-21
  53905.346     1.445E-21
  53905.414     1.285E-21
  53905.481     1.247E-21
  53905.549     1.317E-21
  53905.616     1.373E-21
  53905.684     1.417E-21
  53905.751     1.462E-21
  53905.819     1.501E-21
  53905.886     1.480E-21
  53905.954     1.498E-21
  53906.021     1.549E-21
  53906.089     1.475E-21
  53906.156     1.544E-21
  53906.224     1.615E-21
  53906.291     1.588E-21
  53906.359     1.605E-21
  53906.426     1.638E-21
  53906.494     1.651E-21
  53906.561     1.454E-21
  53906.629     1.224E-21
  53906.696     1.183E-21
  53906.764     1.231E-21
  53906.831     1.383E-21
  53906.899     1.524E-21
  53906.966     1.599E-21
  53907.034     1.679E-21
  53907.101     1.723E-21
  53907.169     1.616E-21
  53907.236     1.509E-21
  53907.304     1.415E-21
  53907.371     1.277E-21
  53907.439     1.211E-21
  53907.506     1.241E-21
  53907.574     1.323E-21
  53907.641     1.272E-21
  53907.709     1.332E-21
  53907.776     1.490E-21
  53907.844     1.598E-21
  53907.911     1.627E-21
  53907.979     1.686E-21
  53908.046     1.701E-21
  53908.114     1.689E-21
  53908.181     1.743E-21
  53908.249     1.734E-21
  53908.316     1.774E-21
  53908.384     1.852E-21
  53908.451     1.899E-21
  53908.519     2.014E-21
  53908.586     2.055E-21
  53908.654     2.041E-21
  53908.721     2.003E-21
  53908.789     2.047E-21
  53908.856     2.090E-21
  53908.924     2.081E-21
  53908.991     2.025E-21
  53909.059     2.142E-21
  53909.126     2.322E-21
  53909.194     2.515E-21
  53909.261     2.543E-21
  53909.329     2.715E-21
  53909.396     2.755E-21
  53909.464     2.874E-21
  53909.531     2.921E-21
  53909.599     2.904E-21
  53909.667     2.990E-21
  53909.734     3.186E-21
  53909.802     3.385E-21
  53909.869     3.594E-21
  53909.937     3.792E-21
  53910.004     3.803E-21
  53910.072     3.891E-21
  53910.139     4.098E-21
  53910.207     4.305E-21
  53910.274     4.532E-21
  53910.342     4.702E-21
  53910.409     4.763E-21
  53910.477     4.889E-21
  53910.544     5.017E-21
  53910.612     5.262E-21
  53910.679     5.547E-21
  53910.747     5.826E-21
  53910.814     5.992E-21
  53910.882     6.055E-21
  53910.949     6.202E-21
  53911.017     6.438E-21
  53911.084     6.781E-21
  53911.152     7.263E-21
  53911.219     7.738E-21
  53911.287     8.221E-21
  53911.354     8.578E-21
  53911.422     9.082E-21
  53911.489     9.629E-21
  53911.557     1.005E-20
  53911.624     1.067E-20
  53911.692     1.157E-20
  53911.759     1.256E-20
  53911.827     1.349E-20
  53911.894     1.433E-20
  53911.962     1.535E-20
  53912.029     1.641E-20
  53912.097     1.779E-20
  53912.164     2.047E-20
  53912.232     2.210E-20
  53912.299     2.394E-20
  53912.367     2.587E-20
  53912.434     2.832E-20
  53912.502     3.100E-20
  53912.570     3.386E-20
  53912.637     3.778E-20
  53912.705     4.114E-20
  53912.772     4.615E-20
  53912.840     5.266E-20
  53912.907     5.680E-20
  53912.975     5.999E-20
  53913.042     6.259E-20
  53913.110     6.441E-20
  53913.177     6.581E-20
  53913.245     6.741E-20
  53913.312     6.862E-20
  53913.380     6.888E-20
  53913.447     6.800E-20
  53913.515     6.711E-20
  53913.582     6.633E-20
  53913.650     6.551E-20
  53913.717     6.425E-20
  53913.785     6.285E-20
  53913.852     6.168E-20
  53913.920     6.045E-20
  53913.987     5.965E-20
  53914.055     5.917E-20
  53914.122     5.908E-20
  53914.190     5.949E-20
  53914.257     5.978E-20
  53914.325     6.044E-20
  53914.392     6.177E-20
  53914.460     6.384E-20
  53914.528     6.710E-20
  53914.595     7.201E-20
  53914.663     7.636E-20
  53914.730     8.010E-20
  53914.798     8.451E-20
  53914.865     8.909E-20
  53914.933     9.375E-20
  53915.000     9.787E-20
  53915.068     1.010E-19
  53915.135     1.035E-19
  53915.203     1.048E-19
  53915.270     1.051E-19
  53915.338     1.039E-19
  53915.405     1.021E-19
  53915.473     9.897E-20
  53915.540     9.515E-20
  53915.608     9.136E-20
  53915.675     8.699E-20
  53915.743     8.180E-20
  53915.810     7.614E-20
  53915.878     7.052E-20
  53915.945     6.376E-20
  53916.013     5.829E-20
  53916.081     5.318E-20
  53916.148     4.873E-20
  53916.216     4.541E-20
  53916.283     4.154E-20
  53916.351     3.914E-20
  53916.418     3.608E-20
  53916.486     3.277E-20
  53916.553     3.021E-20
  53916.621     2.812E-20
  53916.688     2.613E-20
  53916.756     2.430E-20
  53916.823     2.279E-20
  53916.891     2.151E-20
  53916.958     2.041E-20
  53917.026     1.930E-20
  53917.093     1.804E-20
  53917.161     1.673E-20
  53917.228     1.559E-20
  53917.296     1.462E-20
  53917.363     1.370E-20
  53917.431     1.300E-20
  53917.499     1.234E-20
  53917.566     1.174E-20
  53917.634     1.108E-20
  53917.701     1.053E-20
  53917.769     1.004E-20
  53917.836     9.923E-21
  53917.904     9.334E-21
  53917.971     8.951E-21
  53918.039     8.634E-21
  53918.106     8.397E-21
  53918.174     7.984E-21
  53918.241     7.520E-21
  53918.309     7.145E-21
  53918.376     6.952E-21
  53918.444     6.753E-21
  53918.511     6.567E-21
  53918.579     6.477E-21
  53918.646     6.321E-21
  53918.714     6.095E-21
  53918.782     5.837E-21
  53918.849     5.544E-21
  53918.917     5.355E-21
  53918.984     5.237E-21
  53919.052     5.184E-21
  53919.119     5.113E-21
  53919.187     5.036E-21
  53919.254     4.911E-21
  53919.322     4.717E-21
  53919.389     4.429E-21
  53919.457     4.099E-21
  53919.524     3.733E-21
  53919.592     3.604E-21
  53919.659     3.601E-21
  53919.727     3.742E-21
  53919.794     3.820E-21
  53919.862     3.804E-21
  53919.930     3.743E-21
  53919.997     3.553E-21
  53920.065     3.229E-21
  53920.132     3.124E-21
  53920.200     3.109E-21
  53920.267     3.103E-21
  53920.335     3.252E-21
  53920.402     3.351E-21
  53920.470     3.318E-21
  53920.537     3.189E-21
  53920.605     3.014E-21
  53920.672     2.946E-21
  53920.740     2.917E-21
  53920.807     2.837E-21
  53920.875     2.856E-21
  53920.943     2.926E-21
  53921.010     3.006E-21
  53921.078     3.005E-21
  53921.145     2.888E-21
  53921.213     2.590E-21
  53921.280     2.356E-21
  53921.348     2.165E-21
  53921.415     2.086E-21
  53921.483     2.179E-21
  53921.550     2.364E-21
  53921.618     2.455E-21
  53921.685     2.579E-21
  53921.753     2.720E-21
  53921.820     2.767E-21
  53921.888     2.719E-21
  53921.956     2.724E-21
  53922.023     2.724E-21
  53922.091     2.610E-21
  53922.158     2.467E-21
  53922.226     2.331E-21
  53922.293     2.273E-21
  53922.361     2.221E-21
  53922.428     2.174E-21
  53922.496     2.114E-21
  53922.563     2.162E-21
  53922.631     2.170E-21
  53922.698     2.125E-21
  53922.766     2.009E-21
  53922.834     2.029E-21
  53922.901     2.045E-21
  53922.969     2.078E-21
  53923.036     2.093E-21
  53923.104     2.089E-21
  53923.171     2.054E-21
  53923.239     1.987E-21
  53923.306     1.996E-21
  53923.374     2.184E-21
  53923.441     2.358E-21
  53923.509     2.411E-21
  53923.576     2.245E-21
  53923.644     2.080E-21
  53923.712     1.994E-21
  53923.779     2.055E-21
  53923.847     1.995E-21
  53923.914     2.057E-21
  53923.982     2.227E-21
  53924.049     2.363E-21
  53924.117     2.445E-21
  53924.184     2.389E-21
  53924.252     2.263E-21
  53924.319     2.146E-21
  53924.387     2.026E-21
  53924.454     2.089E-21
  53924.522     2.219E-21
  53924.590     2.424E-21
  53924.657     2.652E-21
  53924.725     2.729E-21
  53924.792     2.809E-21
  53924.860     2.833E-21
  53924.927     2.755E-21
  53924.995     2.696E-21
  53925.062     2.687E-21
  53925.130     2.766E-21
  53925.197     2.647E-21
  53925.265     2.590E-21
  53925.333     2.618E-21
  53925.400     2.643E-21
  53925.468     2.599E-21
  53925.535     2.505E-21
  53925.603     2.428E-21
  53925.670     2.511E-21
  53925.738     2.606E-21
  53925.805     2.733E-21
  53925.873     2.790E-21
  53925.940     2.832E-21
  53926.008     2.941E-21
  53926.076     2.912E-21
  53926.143     2.917E-21
  53926.211     3.023E-21
  53926.278     3.099E-21
  53926.346     3.259E-21
  53926.413     3.417E-21
  53926.481     3.415E-21
  53926.548     3.287E-21
  53926.616     3.223E-21
  53926.683     3.285E-21
  53926.751     3.434E-21
  53926.819     3.567E-21
  53926.886     3.456E-21
  53926.954     3.390E-21
  53927.021     3.322E-21
  53927.089     3.355E-21
  53927.156     3.332E-21
  53927.224     3.427E-21
  53927.291     3.489E-21
  53927.359     3.518E-21
  53927.426     3.546E-21
  53927.494     3.635E-21
  53927.562     3.689E-21
  53927.629     3.647E-21
  53927.697     3.626E-21
  53927.764     3.527E-21
  53927.832     3.386E-21
  53927.899     3.329E-21
  53927.967     3.306E-21
  53928.034     3.363E-21
  53928.102     3.483E-21
  53928.169     3.474E-21
  53928.237     3.517E-21
  53928.305     3.649E-21
  53928.372     3.831E-21
  53928.440     3.968E-21
  53928.507     3.980E-21
  53928.575     4.012E-21
  53928.642     4.013E-21
  53928.710     3.982E-21
  53928.777     4.014E-21
  53928.845     4.125E-21
  53928.913     4.136E-21
  53928.980     4.209E-21
  53929.048     4.319E-21
  53929.115     4.355E-21
  53929.183     4.554E-21
  53929.250     4.700E-21
  53929.318     4.912E-21
  53929.385     5.146E-21
  53929.453     5.285E-21
  53929.521     5.340E-21
  53929.588     5.406E-21
  53929.656     5.266E-21
  53929.723     5.081E-21
  53929.791     4.969E-21
  53929.858     5.090E-21
  53929.926     5.376E-21
  53929.993     5.785E-21
  53930.061     6.221E-21
  53930.129     6.504E-21
  53930.196     6.752E-21
  53930.264     7.053E-21
  53930.331     7.231E-21
  53930.399     7.308E-21
  53930.466     7.389E-21
  53930.534     7.643E-21
  53930.601     7.916E-21
  53930.669     8.133E-21
  53930.736     8.527E-21
  53930.804     8.969E-21
  53930.872     9.484E-21
  53930.939     1.012E-20
  53931.007     1.064E-20
  53931.074     1.124E-20
  53931.142     1.180E-20
  53931.209     1.240E-20
  53931.277     1.303E-20
  53931.345     1.383E-20
  53931.412     1.466E-20
  53931.480     1.553E-20
  53931.547     1.645E-20
  53931.615     1.735E-20
  53931.682     1.846E-20
  53931.750     1.958E-20
  53931.817     2.108E-20
  53931.885     2.244E-20
  53931.953     2.384E-20
  53932.020     2.536E-20
  53932.088     2.696E-20
  53932.155     2.893E-20
  53932.223     3.128E-20
  53932.290     3.414E-20
  53932.358     3.796E-20
  53932.425     4.112E-20
  53932.493     4.569E-20
  53932.561     5.361E-20
  53932.628     5.898E-20
  53932.696     6.527E-20
  53932.763     7.365E-20
  53932.831     8.149E-20
  53932.898     8.952E-20
  53932.966     9.729E-20
  53933.033     1.040E-19
  53933.101     1.099E-19
  53933.169     1.150E-19
  53933.236     1.193E-19
  53933.304     1.228E-19
  53933.371     1.254E-19
  53933.439     1.278E-19
  53933.506     1.295E-19
  53933.574     1.299E-19
  53933.642     1.296E-19
  53933.709     1.279E-19
  53933.777     1.263E-19
  53933.844     1.246E-19
  53933.912     1.225E-19
  53933.979     1.221E-19
  53934.047     1.232E-19
  53934.114     1.255E-19
  53934.182     1.285E-19
  53934.250     1.310E-19
  53934.317     1.335E-19
  53934.385     1.363E-19
  53934.452     1.420E-19
  53934.520     1.451E-19
  53934.587     1.477E-19
  53934.655     1.502E-19
  53934.723     1.521E-19
  53934.790     1.520E-19
  53934.858     1.503E-19
  53934.925     1.472E-19
  53934.993     1.435E-19
  53935.060     1.388E-19
  53935.128     1.337E-19
  53935.195     1.284E-19
  53935.263     1.222E-19
  53935.331     1.157E-19
  53935.398     1.088E-19
  53935.466     1.019E-19
  53935.533     9.468E-20
  53935.601     8.768E-20
  53935.668     8.158E-20
  53935.736     7.588E-20
  53935.804     7.065E-20
  53935.871     6.600E-20
  53935.939     6.154E-20
  53936.006     5.731E-20
  53936.074     5.243E-20
  53936.141     4.826E-20
  53936.209     4.414E-20
  53936.277     4.044E-20
  53936.344     3.796E-20
  53936.412     3.550E-20
  53936.479     3.315E-20
  53936.547     3.130E-20
  53936.614     2.978E-20
  53936.682     2.845E-20
  53936.750     2.703E-20
  53936.817     2.554E-20
  53936.885     2.427E-20
  53936.952     2.312E-20
  53937.020     2.183E-20
  53937.087     2.080E-20
  53937.155     2.051E-20
  53937.223     1.965E-20
  53937.290     1.880E-20
  53937.358     1.807E-20
  53937.425     1.734E-20
  53937.493     1.657E-20
  53937.560     1.566E-20
  53937.628     1.485E-20
  53937.696     1.430E-20
  53937.763     1.378E-20
  53937.831     1.320E-20
  53937.898     1.266E-20
  53937.966     1.213E-20
  53938.033     1.151E-20
  53938.101     1.085E-20
  53938.169     1.043E-20
  53938.236     1.011E-20
  53938.304     9.676E-21
  53938.371     9.599E-21
  53938.439     9.325E-21
  53938.506     9.014E-21
  53938.574     8.787E-21
  53938.642     8.472E-21
  53938.709     8.185E-21
  53938.777     7.900E-21
  53938.844     7.787E-21
  53938.912     7.648E-21
  53938.979     7.308E-21
  53939.047     7.084E-21
  53939.115     6.861E-21
  53939.182     6.804E-21
  53939.250     6.768E-21
  53939.317     6.660E-21
  53939.385     6.570E-21
  53939.452     6.442E-21
  53939.520     6.276E-21
  53939.588     6.094E-21
  53939.655     6.016E-21
  53939.723     5.779E-21
  53939.790     5.496E-21
  53939.858     5.287E-21
  53939.925     5.341E-21
  53939.993     5.366E-21
  53940.061     5.262E-21
  53940.128     5.160E-21
  53940.196     5.231E-21
  53940.263     5.289E-21
  53940.331     5.420E-21
  53940.398     5.415E-21
  53940.466     5.277E-21
  53940.534     5.289E-21
  53940.601     5.250E-21
  53940.669     5.188E-21
  53940.736     5.059E-21
  53940.804     4.900E-21
  53940.872     4.752E-21
  53940.939     4.674E-21
  53941.007     4.650E-21
  53941.074     4.724E-21
  53941.142     4.837E-21
  53941.209     4.816E-21
  53941.277     4.784E-21
  53941.345     4.776E-21
  53941.412     4.646E-21
  53941.480     4.688E-21
  53941.547     4.672E-21
  53941.615     4.595E-21
  53941.682     4.551E-21
  53941.750     4.522E-21
  53941.818     4.698E-21
  53941.885     4.826E-21
  53941.953     4.944E-21
  53942.020     5.011E-21
  53942.088     4.872E-21
  53942.156     4.643E-21
  53942.223     4.492E-21
  53942.291     4.460E-21
  53942.358     4.542E-21
  53942.426     4.694E-21
  53942.493     5.059E-21
  53942.561     5.428E-21
  53942.629     5.719E-21
  53942.696     5.853E-21
  53942.764     5.970E-21
  53942.831     5.869E-21
  53942.899     5.818E-21
  53942.967     5.886E-21
  53943.034     5.926E-21
  53943.102     5.789E-21
  53943.169     5.546E-21
  53943.237     5.339E-21
  53943.304     5.339E-21
  53943.372     5.524E-21
  53943.440     5.789E-21
  53943.507     5.930E-21
  53943.575     5.925E-21
  53943.642     5.950E-21
  53943.710     6.029E-21
  53943.778     6.283E-21
  53943.845     6.512E-21
  53943.913     6.749E-21
  53943.980     6.949E-21
  53944.048     7.153E-21
  53944.115     7.267E-21
  53944.183     7.311E-21
  53944.251     7.501E-21
  53944.318     7.749E-21
  53944.386     7.966E-21
  53944.453     8.193E-21
  53944.521     8.308E-21
  53944.589     8.388E-21
  53944.656     8.572E-21
  53944.724     9.780E-21
  53944.791     1.012E-20
  53944.859     1.051E-20
  53944.926     1.102E-20
  53944.994     1.158E-20
  53945.062     1.217E-20
  53945.129     1.270E-20
  53945.197     1.308E-20
  53945.264     1.352E-20
  53945.332     1.421E-20
  53945.400     1.473E-20
  53945.467     1.525E-20
  53945.535     1.570E-20
  53945.602     1.620E-20
  53945.670     1.671E-20
  53945.738     1.705E-20
  53945.805     1.728E-20
  53945.873     1.756E-20
  53945.940     1.787E-20
  53946.008     1.818E-20
  53946.075     1.871E-20
  53946.143     1.927E-20
  53946.211     2.020E-20
  53946.278     2.117E-20
  53946.346     2.202E-20
  53946.413     2.282E-20
  53946.481     2.396E-20
  53946.549     2.526E-20
  53946.616     2.698E-20
  53946.684     2.895E-20
  53946.751     3.095E-20
  53946.819     3.302E-20
  53946.887     3.498E-20
  53946.954     3.729E-20
  53947.022     3.995E-20
  53947.089     4.283E-20
  53947.157     4.833E-20
  53947.225     5.144E-20
  53947.292     5.585E-20
  53947.360     6.022E-20
  53947.427     6.575E-20
  53947.495     7.443E-20
  53947.562     8.161E-20
  53947.630     8.996E-20
  53947.698     9.960E-20
  53947.765     1.097E-19
  53947.833     1.202E-19
  53947.900     1.308E-19
  53947.968     1.423E-19
  53948.036     1.519E-19
  53948.103     1.608E-19
  53948.171     1.701E-19
  53948.238     1.784E-19
  53948.306     1.851E-19
  53948.374     1.913E-19
  53948.441     1.960E-19
  53948.509     1.981E-19
  53948.576     1.993E-19
  53948.644     1.990E-19
  53948.712     1.987E-19
  53948.779     1.977E-19
  53948.847     1.954E-19
  53948.914     1.926E-19
  53948.982     1.895E-19
  53949.050     1.870E-19
  53949.117     1.833E-19
  53949.185     1.776E-19
  53949.252     1.716E-19
  53949.320     1.661E-19
  53949.388     1.602E-19
  53949.455     1.529E-19
  53949.523     1.454E-19
  53949.590     1.349E-19
  53949.658     1.270E-19
  53949.726     1.191E-19
  53949.793     1.115E-19
  53949.861     1.045E-19
  53949.928     9.782E-20
  53949.996     9.101E-20
  53950.064     8.387E-20
  53950.131     7.684E-20
  53950.199     7.078E-20
  53950.266     6.557E-20
  53950.334     6.182E-20
  53950.402     5.758E-20
  53950.469     5.410E-20
  53950.537     5.029E-20
  53950.604     4.715E-20
  53950.672     4.420E-20
  53950.740     4.199E-20
  53950.807     4.033E-20
  53950.875     3.884E-20
  53950.942     3.714E-20
  53951.010     3.557E-20
  53951.078     3.355E-20
  53951.145     3.239E-20
  53951.213     3.129E-20
  53951.280     3.026E-20
  53951.348     2.910E-20
  53951.416     2.792E-20
  53951.483     2.683E-20
  53951.551     2.607E-20
  53951.618     2.552E-20
  53951.686     2.468E-20
  53951.754     2.369E-20
  53951.821     2.255E-20
  53951.889     2.138E-20
  53951.956     2.055E-20
  53952.024     2.009E-20
  53952.092     1.924E-20
  53952.159     1.840E-20
  53952.227     1.764E-20
  53952.294     1.681E-20
  53952.362     1.605E-20
  53952.430     1.545E-20
  53952.497     1.488E-20
  53952.565     1.437E-20
  53952.632     1.380E-20
  53952.700     1.348E-20
  53952.768     1.308E-20
  53952.835     1.264E-20
  53952.903     1.253E-20
  53952.970     1.240E-20
  53953.038     1.230E-20
  53953.106     1.209E-20
  53953.173     1.178E-20
  53953.241     1.160E-20
  53953.308     1.137E-20
  53953.376     1.112E-20
  53953.444     1.102E-20
  53953.511     1.100E-20
  53953.579     1.113E-20
  53953.646     1.136E-20
  53953.714     1.156E-20
  53953.782     1.177E-20
  53953.849     1.187E-20
  53953.917     1.185E-20
  53953.984     1.175E-20
  53954.052     1.169E-20
  53954.120     1.167E-20
  53954.187     1.158E-20
  53954.255     1.161E-20
  53954.323     1.188E-20
  53954.390     1.240E-20
  53954.458     1.279E-20
  53954.525     1.306E-20
  53954.593     1.340E-20
  53954.661     1.372E-20
  53954.728     1.411E-20
  53954.796     1.465E-20
  53954.863     1.513E-20
  53954.931     1.573E-20
  53954.999     1.611E-20
  53955.066     1.640E-20
  53955.134     1.684E-20
  53955.201     1.743E-20
  53955.269     1.823E-20
  53955.337     1.978E-20
  53955.404     2.098E-20
  53955.472     2.199E-20
  53955.539     2.296E-20
  53955.607     2.421E-20
  53955.675     2.538E-20
  53955.742     2.681E-20
  53955.810     2.819E-20
  53955.878     2.958E-20
  53955.945     3.111E-20
  53956.013     3.268E-20
  53956.080     3.416E-20
  53956.148     3.571E-20
  53956.216     3.740E-20
  53956.283     3.904E-20
  53956.351     4.073E-20
  53956.418     4.268E-20
  53956.486     4.645E-20
  53956.554     4.952E-20
  53956.621     5.221E-20
  53956.689     5.503E-20
  53956.757     5.849E-20
  53956.824     6.192E-20
  53956.892     6.617E-20
  53956.959     7.100E-20
  53957.027     7.985E-20
  53957.095     8.695E-20
  53957.162     9.517E-20
  53957.230     1.039E-19
  53957.297     1.130E-19
  53957.365     1.222E-19
  53957.433     1.319E-19
  53957.500     1.447E-19
  53957.568     1.547E-19
  53957.636     1.644E-19
  53957.703     1.724E-19
  53957.771     1.787E-19
  53957.838     1.833E-19
  53957.906     1.857E-19
  53957.974     1.859E-19
  53958.041     1.842E-19
  53958.109     1.804E-19
  53958.176     1.739E-19
  53958.244     1.651E-19
  53958.312     1.551E-19
  53958.379     1.449E-19
  53958.447     1.350E-19
  53958.515     1.273E-19
  53958.582     1.187E-19
  53958.650     1.105E-19
  53958.717     1.026E-19
  53958.785     9.536E-20
  53958.853     8.855E-20
  53958.920     8.234E-20
  53958.988     7.644E-20
  53959.055     7.117E-20
  53959.123     6.651E-20
  53959.191     6.316E-20
  53959.258     6.048E-20
  53959.326     5.856E-20
  53959.394     5.699E-20
  53959.461     5.586E-20
  53959.529     5.567E-20
  53959.596     5.570E-20
  53959.664     5.563E-20
  53959.732     5.558E-20
  53959.799     5.591E-20
  53959.867     5.649E-20
  53959.935     5.722E-20
  53960.002     5.760E-20
  53960.070     5.783E-20
  53960.137     5.832E-20
  53960.205     5.888E-20
  53960.273     5.959E-20
  53960.340     6.033E-20
  53960.408     6.120E-20
  53960.475     6.180E-20
  53960.543     6.195E-20
  53960.611     6.197E-20
  53960.678     6.172E-20
  53960.746     6.101E-20
  53960.814     6.069E-20
  53960.881     6.047E-20
  53960.949     6.015E-20
  53961.016     6.052E-20
  53961.084     6.126E-20
  53961.152     6.259E-20
  53961.219     6.430E-20
  53961.287     6.606E-20
  53961.355     6.864E-20
  53961.422     7.181E-20
  53961.490     7.610E-20
  53961.557     8.043E-20
  53961.625     8.425E-20
  53961.693     8.744E-20
  53961.760     8.971E-20
  53961.828     9.146E-20
  53961.896     9.272E-20
  53961.963     9.311E-20
  53962.031     9.116E-20
  53962.098     8.805E-20
  53962.166     8.446E-20
  53962.234     7.985E-20
  53962.301     7.417E-20
  53962.369     6.863E-20
  53962.437     6.329E-20
  53962.504     5.827E-20
  53962.572     5.335E-20
  53962.639     4.852E-20
  53962.707     4.375E-20
  53962.775     4.052E-20
  53962.842     3.856E-20
  53962.910     3.614E-20
  53962.978     3.386E-20
  53963.045     3.162E-20
  53963.113     2.949E-20
  53963.180     2.766E-20
  53963.248     2.614E-20
  53963.316     2.481E-20
  53963.383     2.374E-20
  53963.451     2.283E-20
  53963.519     2.230E-20
  53963.586     2.200E-20
  53963.654     2.166E-20
  53963.721     2.129E-20
  53963.789     2.102E-20
  53963.857     2.064E-20
  53963.924     2.076E-20
  53963.992     2.045E-20
  53964.060     2.007E-20
  53964.127     1.975E-20
  53964.195     1.943E-20
  53964.263     1.878E-20
  53964.330     1.806E-20
  53964.398     1.742E-20
  53964.465     1.680E-20
  53964.533     1.642E-20
  53964.601     1.584E-20
  53964.668     1.515E-20
  53964.736     1.441E-20
  53964.804     1.356E-20
  53964.871     1.269E-20
  53964.939     1.194E-20
  53965.006     1.128E-20
  53965.074     1.071E-20
  53965.142     1.017E-20
  53965.209     9.561E-21
  53965.277     9.038E-21
  53965.345     8.668E-21
  53965.412     8.343E-21
  53965.480     8.035E-21
  53965.548     7.773E-21
  53965.615     7.179E-21
  53965.683     6.732E-21
  53965.750     6.467E-21
  53965.818     6.199E-21
  53965.886     6.129E-21
  53965.953     6.066E-21
  53966.021     5.900E-21
  53966.089     5.560E-21
  53966.156     5.208E-21
  53966.224     4.858E-21
  53966.292     4.818E-21
  53966.359     4.894E-21
  53966.427     4.916E-21
  53966.494     4.876E-21
  53966.562     4.760E-21
  53966.630     4.555E-21
  53966.697     4.404E-21
  53966.765     4.297E-21
  53966.833     4.027E-21
  53966.900     3.870E-21
  53966.968     3.740E-21
  53967.035     3.620E-21
  53967.103     3.587E-21
  53967.171     3.628E-21
  53967.238     3.592E-21
  53967.306     3.585E-21
  53967.374     3.641E-21
  53967.441     3.558E-21
  53967.509     3.436E-21
  53967.577     3.267E-21
  53967.644     3.212E-21
  53967.712     3.219E-21
  53967.780     3.160E-21
  53967.847     3.087E-21
  53967.915     3.031E-21
  53967.982     2.898E-21
  53968.050     2.817E-21
  53968.118     2.844E-21
  53968.185     2.831E-21
  53968.253     2.821E-21
  53968.321     2.820E-21
  53968.388     2.718E-21
  53968.456     2.697E-21
  53968.524     2.638E-21
  53968.591     2.669E-21
  53968.659     2.763E-21
  53968.726     2.753E-21
  53968.794     2.605E-21
  53968.862     2.440E-21
  53968.929     2.359E-21
  53968.997     2.254E-21
  53969.065     2.062E-21
  53969.132     2.110E-21
  53969.200     2.248E-21
  53969.268     2.349E-21
  53969.335     2.570E-21
  53969.403     2.768E-21
  53969.471     2.798E-21
  53969.538     2.754E-21
  53969.606     2.703E-21
  53969.673     2.715E-21
  53969.741     2.686E-21
  53969.809     2.677E-21
  53969.876     2.676E-21
  53969.944     2.817E-21
  53970.012     2.916E-21
  53970.079     2.930E-21
  53970.147     2.809E-21
  53970.215     2.774E-21
  53970.282     2.867E-21
  53970.350     2.956E-21
  53970.418     2.931E-21
  53970.485     2.886E-21
  53970.553     2.912E-21
  53970.620     2.980E-21
  53970.688     2.782E-21
  53970.756     2.647E-21
  53970.823     2.548E-21
  53970.891     2.398E-21
  53970.959     2.250E-21
  53971.026     2.273E-21
  53971.094     2.375E-21
  53971.162     2.454E-21
  53971.229     2.474E-21
  53971.297     2.376E-21
  53971.365     2.286E-21
  53971.432     2.287E-21
  53971.500     2.347E-21
  53971.567     2.515E-21
  53971.635     2.583E-21
  53971.703     2.562E-21
  53971.770     2.465E-21
  53971.838     2.425E-21
  53971.906     2.462E-21
  53971.973     2.457E-21
  53972.041     2.394E-21
  53972.109     2.356E-21
  53972.176     2.312E-21
  53972.244     2.344E-21
  53972.312     2.308E-21
  53972.379     2.217E-21
  53972.447     2.070E-21
  53972.515     2.023E-21
  53972.582     2.019E-21
  53972.650     1.986E-21
  53972.717     1.893E-21
  53972.785     1.769E-21
  53972.853     1.583E-21
  53972.920     1.457E-21
  53972.988     1.381E-21
  53973.056     1.331E-21
  53973.123     1.297E-21
  53973.191     1.290E-21
  53973.259     1.344E-21
  53973.326     1.340E-21
  53973.394     1.365E-21
  53973.462     1.404E-21
  53973.529     1.427E-21
  53973.597     1.444E-21
  53973.665     1.396E-21
  53973.732     1.349E-21
  53973.800     1.345E-21
  53973.868     1.303E-21
  53973.935     1.167E-21
  53974.003     1.190E-21
  53974.070     1.247E-21
  53974.138     1.177E-21
  53974.206     1.079E-21
  53974.273     9.485E-22
  53974.341     8.249E-22
  53974.409     8.099E-22
  53974.476     8.513E-22
  53974.544     8.897E-22
  53974.612     8.312E-22
  53974.679     7.364E-22
  53974.747     7.112E-22
  53974.815     6.731E-22
  53974.882     7.721E-22
  53974.950     9.685E-22
  53975.018     1.051E-21
  53975.085     1.149E-21
  53975.153     1.221E-21
  53975.221     1.232E-21
  53975.288     1.117E-21
  53975.356     9.771E-22
  53975.424     8.312E-22
  53975.491     7.774E-22
  53975.559     6.799E-22
  53975.627     6.228E-22
  53975.694     8.129E-22
  53975.762     9.325E-22
  53975.829     9.942E-22
  53975.897     9.772E-22
  53975.965     9.773E-22
  53976.032     9.807E-22
  53976.100     9.370E-22
  53976.168     9.293E-22
  53976.235     9.711E-22
  53976.303     1.024E-21
  53976.371     1.100E-21
  53976.438     1.232E-21
  53976.506     1.405E-21
  53976.574     1.568E-21
  53976.641     1.551E-21
  53976.709     1.512E-21
  53976.777     1.483E-21
  53976.844     1.349E-21
  53976.912     1.137E-21
  53976.980     9.853E-22
  53977.047     8.608E-22
  53977.115     7.528E-22
  53977.183     6.538E-22
  53977.250     5.542E-22
  53977.318     5.003E-22
  53977.386     6.491E-22
  53977.453     8.375E-22
  53977.521     8.323E-22
  53977.589     8.371E-22
  53977.656     7.232E-22
  53977.724     5.720E-22
  53977.792     6.246E-22
  53977.859     7.033E-22
  53977.927     6.591E-22
  53977.995     5.812E-22
  53978.062     4.242E-22
  53978.130     3.696E-22
  53978.198     3.868E-22
  53978.265     3.786E-22
  53978.333     4.136E-22
  53978.401     3.505E-22
  53978.468     3.338E-22
  53978.536     3.729E-22
  53978.604     5.152E-22
  53978.671     7.139E-22
  53978.739     8.156E-22
  53978.807     8.775E-22
  53978.874     9.019E-22
  53978.942     8.326E-22
  53979.009     8.034E-22
  53979.077     7.937E-22
  53979.145     7.860E-22
  53979.212     7.803E-22
  53979.280     7.739E-22
  53979.348     8.483E-22
  53979.415     8.754E-22
  53979.483     9.202E-22
  53979.551     9.593E-22
  53979.618     9.546E-22
  53979.686     1.048E-21
  53979.754     1.201E-21
  53979.821     1.379E-21
  53979.889     1.502E-21
  53979.957     1.512E-21
  53980.024     1.479E-21
  53980.092     1.405E-21
  53980.160     1.296E-21
  53980.227     1.215E-21
  53980.295     1.164E-21
  53980.363     1.174E-21
  53980.430     1.138E-21
  53980.498     1.123E-21
  53980.566     1.047E-21
  53980.633     1.117E-21
  53980.701     1.151E-21
  53980.769     1.084E-21
  53980.836     1.137E-21
  53980.904     1.246E-21
  53980.972     1.235E-21
  53981.039     1.131E-21
  53981.107     1.031E-21
  53981.175     1.025E-21
  53981.242     9.674E-22
  53981.310     9.525E-22
  53981.378     1.132E-21
  53981.445     1.358E-21
  53981.513     1.441E-21
  53981.581     1.509E-21
  53981.648     1.522E-21
  53981.716     1.362E-21
  53981.784     1.128E-21
  53981.851     8.603E-22
  53981.919     6.124E-22
  53981.987     5.145E-22
  53982.054     6.041E-22
  53982.122     7.385E-22
  53982.190     8.327E-22
  53982.257     9.733E-22
  53982.325     1.062E-21
  53982.393     1.250E-21
  53982.461     1.296E-21
  53982.528     1.125E-21
  53982.596     9.174E-22
  53982.664     8.560E-22
  53982.731     7.240E-22
  53982.799     6.881E-22
  53982.867     6.412E-22
  53982.934     6.460E-22
  53983.002     6.659E-22
  53983.070     6.784E-22
  53983.137     7.903E-22
  53983.205     9.079E-22
  53983.273     1.083E-21
  53983.340     1.018E-21
  53983.408     7.534E-22
  53983.476     5.734E-22
  53983.543     5.967E-22
  53983.611     6.271E-22
  53983.679     6.354E-22
  53983.746     7.121E-22
  53983.814     7.527E-22
  53983.882     6.172E-22
  53983.949     5.368E-22
  53984.017     4.067E-22
  53984.085     4.371E-22
  53984.152     4.081E-22
  53984.220     3.644E-22
  53984.288     4.983E-22
  53984.355     5.451E-22
  53984.423     4.796E-22
  53984.491     3.660E-22
  53984.558     1.888E-22
  53984.626     8.001E-23
  53984.694    -2.200E-23
  53984.761    -4.221E-23
  53984.829     2.822E-23
  53984.897     1.408E-22
  53984.964     2.721E-22
  53985.032     2.870E-22
  53985.100     3.217E-22
  53985.167     3.872E-22
  53985.235     4.138E-22
  53985.303     3.607E-22
  53985.370     3.531E-22
  53985.438     4.108E-22
  53985.506     4.578E-22
  53985.574     4.166E-22
  53985.641     4.268E-22
  53985.709     4.319E-22
  53985.777     3.280E-22
  53985.844     3.230E-22
  53985.912     2.128E-22
  53985.980     2.069E-22
  53986.047     3.046E-22
  53986.115     4.392E-22
  53986.183     4.298E-22
  53986.250     4.301E-22
  53986.318     5.045E-22
  53986.386     4.595E-22
  53986.453     3.452E-22
  53986.521     2.251E-22
  53986.589     1.775E-22
  53986.656     1.370E-22
  53986.724     2.047E-22
  53986.792     4.018E-22
  53986.859     4.686E-22
  53986.927     3.879E-22
  53986.995     3.058E-22
  53987.062     2.760E-22
  53987.130     2.848E-22
  53987.198     3.307E-22
  53987.266     4.448E-22
  53987.333     5.732E-22
  53987.401     6.006E-22
  53987.469     3.627E-22
  53987.536     3.390E-22
  53987.604     5.643E-22
  53987.672     7.594E-22
  53987.739     7.518E-22
  53987.807     7.274E-22
  53987.875     7.534E-22
  53987.942     7.338E-22
  53988.010     7.565E-22
  53988.078     8.025E-22
  53988.145     8.090E-22
  53988.213     8.293E-22
  53988.281     8.995E-22
  53988.348     8.964E-22
  53988.416     1.039E-21
  53988.484     1.148E-21
  53988.551     1.100E-21
  53988.619     1.035E-21
  53988.687     1.120E-21
  53988.755     1.186E-21
  53988.822     1.268E-21
  53988.890     1.240E-21
  53988.958     1.243E-21
  53989.025     1.361E-21
  53989.093     1.366E-21
  53989.161     1.337E-21
  53989.228     1.232E-21
  53989.296     1.183E-21
  53989.364     1.208E-21
  53989.431     1.264E-21
  53989.499     1.195E-21
  53989.567     1.112E-21
  53989.634     1.105E-21
  53989.702     1.143E-21
  53989.770     1.077E-21
  53989.838     1.094E-21
  53989.905     1.069E-21
  53989.973     1.127E-21
  53990.041     1.349E-21
  53990.108     1.444E-21
  53990.176     1.499E-21
  53990.244     1.479E-21
  53990.311     1.306E-21
  53990.379     1.105E-21
  53990.447     8.529E-22
  53990.514     6.906E-22
  53990.582     6.001E-22
  53990.650     6.434E-22
  53990.717     7.214E-22
  53990.785     7.695E-22
  53990.853     8.801E-22
  53990.921     1.026E-21
  53990.988     1.043E-21
  53991.056     9.211E-22
  53991.124     7.213E-22
  53991.191     6.378E-22
  53991.259     6.431E-22
  53991.327     7.665E-22
  53991.394     7.627E-22
  53991.462     5.310E-22
  53991.530     3.145E-22
  53991.597     3.300E-22
  53991.665     4.358E-22
  53991.733     4.684E-22
  53991.801     4.627E-22
  53991.868     5.338E-22
  53991.936     6.210E-22
  53992.004     6.638E-22
  53992.071     5.929E-22
  53992.139     5.043E-22
  53992.207     4.402E-22
  53992.274     3.484E-22
  53992.342     2.637E-22
  53992.410     2.921E-22
  53992.477     3.575E-22
  53992.545     3.671E-22
  53992.613     3.898E-22
  53992.681     3.712E-22
  53992.748     3.050E-22
  53992.816     2.564E-22
  53992.884     2.595E-22
  53992.951     2.987E-22
  53993.019     3.499E-22
  53993.087     2.307E-22
  53993.154     9.171E-23
  53993.222     1.010E-22
  53993.290     1.625E-22
  53993.357     3.269E-22
  53993.425     6.089E-22
  53993.493     7.543E-22
  53993.561     7.709E-22
  53993.628     7.394E-22
  53993.696     6.168E-22
  53993.764     5.281E-22
  53993.831     4.665E-22
  53993.899     4.223E-22
  53993.967     3.113E-22
  53994.034     2.117E-22
  53994.102     8.403E-23
  53994.170     5.250E-23
  53994.238     1.571E-22
  53994.305     2.660E-22
  53994.373     4.457E-22
  53994.441     5.183E-22
  53994.508     6.885E-22
  53994.576     7.259E-22
  53994.644     6.988E-22
  53994.711     6.957E-22
  53994.779     7.920E-22
  53994.847     8.836E-22
  53994.914     1.022E-21
  53994.982     1.203E-21
  53995.050     1.249E-21
  53995.118     1.248E-21
  53995.185     1.289E-21
  53995.253     1.346E-21
  53995.321     1.404E-21
  53995.388     1.441E-21
  53995.456     1.463E-21
  53995.524     1.328E-21
  53995.591     1.181E-21
  53995.659     1.150E-21
  53995.727     1.137E-21
  53995.795     1.080E-21
  53995.862     1.187E-21
  53995.930     1.336E-21
  53995.998     1.308E-21
  53996.065     1.356E-21
  53996.133     1.423E-21
  53996.201     1.502E-21
  53996.268     1.642E-21
  53996.336     1.728E-21
  53996.404     1.732E-21
  53996.472     1.586E-21
  53996.539     1.440E-21
  53996.607     1.345E-21
  53996.675     1.402E-21
  53996.742     1.435E-21
  53996.810     1.452E-21
  53996.878     1.374E-21
  53996.946     1.161E-21
  53997.013     9.387E-22
  53997.081     8.023E-22
  53997.149     7.997E-22
  53997.216     8.029E-22
  53997.284     8.411E-22
  53997.352     7.837E-22
  53997.419     8.514E-22
  53997.487     1.027E-21
  53997.555     1.013E-21
  53997.623     9.664E-22
  53997.690     9.515E-22
  53997.758     8.051E-22
  53997.826     6.763E-22
  53997.893     6.335E-22
  53997.961     6.180E-22
  53998.029     6.662E-22
  53998.096     7.092E-22
  53998.164     8.351E-22
  53998.232     9.278E-22
  53998.300     8.143E-22
  53998.367     6.394E-22
  53998.435     5.588E-22
  53998.503     5.322E-22
  53998.570     4.814E-22
  53998.638     3.591E-22
  53998.706     3.264E-22
  53998.774     3.387E-22
  53998.841     4.049E-22
  53998.909     3.629E-22
  53998.977     3.339E-22
  53999.044     3.025E-22
  53999.112     5.306E-22
  53999.180     7.532E-22
  53999.247     8.331E-22
  53999.315     9.026E-22
  53999.383     9.633E-22
  53999.451     1.038E-21
  53999.518     1.130E-21
  53999.586     1.080E-21
  53999.654     1.048E-21
  53999.721     1.104E-21
  53999.789     1.087E-21
  53999.857     1.089E-21
  53999.925     1.075E-21
  53999.992     9.815E-22
  54000.060     8.026E-22
  54000.128     7.124E-22
  54000.195     6.488E-22
  54000.263     5.971E-22
  54000.331     4.962E-22
  54000.399     3.661E-22
  54000.466     3.647E-22
  54000.534     4.389E-22
  54000.602     6.129E-22
  54000.669     7.671E-22
  54000.737     9.582E-22
  54000.805     1.195E-21
  54000.873     1.425E-21
  54000.940     1.598E-21
  54001.008     1.622E-21
  54001.076     1.502E-21
  54001.143     1.369E-21
  54001.211     1.308E-21
  54001.279     1.311E-21
  54001.347     1.255E-21
  54001.414     1.126E-21
  54001.482     1.099E-21
  54001.550     1.157E-21
  54001.617     1.220E-21
  54001.685     1.285E-21
  54001.753     1.352E-21
  54001.821     1.280E-21
  54001.888     1.239E-21
  54001.956     1.222E-21
  54002.024     1.175E-21
  54002.091     1.039E-21
  54002.159     9.809E-22
  54002.227     8.846E-22
  54002.295     7.531E-22
  54002.362     7.027E-22
  54002.430     6.927E-22
  54002.498     5.856E-22
  54002.565     5.194E-22
  54002.633     4.531E-22
  54002.701     5.047E-22
  54002.769     5.495E-22
  54002.836     5.309E-22
  54002.904     5.881E-22
  54002.972     5.761E-22
  54003.039     5.653E-22
  54003.107     5.570E-22
  54003.175     6.035E-22
  54003.243     6.196E-22
  54003.310     7.304E-22
  54003.378     8.018E-22
  54003.446     8.130E-22
  54003.513     7.950E-22
  54003.581     7.251E-22
  54003.649     7.279E-22
  54003.717     6.914E-22
  54003.784     7.318E-22
  54003.852     7.114E-22
  54003.920     5.985E-22
  54003.987     5.490E-22
  54004.055     5.511E-22
  54004.123     6.249E-22
  54004.191     8.099E-22
  54004.258     7.666E-22
  54004.326     6.925E-22
  54004.394     7.287E-22
  54004.461     8.355E-22
  54004.529     9.278E-22
  54004.597     8.672E-22
  54004.665     8.064E-22
  54004.732     7.633E-22
  54004.800     8.677E-22
  54004.868     8.910E-22
  54004.936     1.027E-21
  54005.003     1.154E-21
  54005.071     1.211E-21
  54005.139     1.263E-21
  54005.206     1.199E-21
  54005.274     1.155E-21
  54005.342     1.050E-21
  54005.410     9.863E-22
  54005.477     1.033E-21
  54005.545     1.091E-21
  54005.613     1.209E-21
  54005.680     1.371E-21
  54005.748     1.504E-21
  54005.816     1.676E-21
  54005.884     1.678E-21
  54005.951     1.377E-21
  54006.019     1.044E-21
  54006.087     7.605E-22
  54006.155     6.045E-22
  54006.222     5.505E-22
  54006.290     6.832E-22
  54006.358     8.552E-22
  54006.425     9.541E-22
  54006.493     9.420E-22
  54006.561     8.508E-22
  54006.629     8.601E-22
  54006.696     9.685E-22
  54006.764     1.076E-21
  54006.832     1.008E-21
  54006.899     9.060E-22
  54006.967     8.157E-22
  54007.035     7.635E-22
  54007.103     7.621E-22
  54007.170     8.485E-22
  54007.238     8.691E-22
  54007.306     7.581E-22
  54007.374     7.408E-22
  54007.441     8.112E-22
  54007.509     8.685E-22
  54007.577     1.131E-21
  54007.644     1.280E-21
  54007.712     1.311E-21
  54007.780     1.336E-21
  54007.848     1.450E-21
  54007.915     1.529E-21
  54007.983     1.346E-21
  54008.051     1.205E-21
  54008.119     1.080E-21
  54008.186     8.140E-22
  54008.254     6.670E-22
  54008.322     6.360E-22
  54008.389     7.416E-22
  54008.457     8.462E-22
  54008.525     8.116E-22
  54008.593     8.319E-22
  54008.660     8.174E-22
  54008.728     8.482E-22
  54008.796     8.933E-22
  54008.864     1.032E-21
  54008.931     1.148E-21
  54008.999     1.078E-21
  54009.067     1.018E-21
  54009.134     1.060E-21
  54009.202     1.127E-21
  54009.270     1.112E-21
  54009.338     1.152E-21
  54009.405     1.173E-21
  54009.473     1.150E-21
  54009.541     1.188E-21
  54009.609     1.181E-21
  54009.676     9.883E-22
  54009.744     8.749E-22
  54009.812     9.316E-22
  54009.880     8.937E-22
  54009.947     8.966E-22
  54010.015     9.460E-22
  54010.083     8.872E-22
  54010.150     6.903E-22
  54010.218     4.491E-22
  54010.286     3.651E-22
  54010.354     4.847E-22
  54010.421     5.489E-22
  54010.489     5.640E-22
  54010.557     4.353E-22
  54010.625     2.392E-22
  54010.692     1.914E-22
  54010.760     3.520E-22
  54010.828     5.880E-22
  54010.896     6.298E-22
  54010.963     4.983E-22
  54011.031     3.583E-22
  54011.099     2.007E-22
  54011.166     1.348E-22
  54011.234     9.852E-23
  54011.302     1.260E-22
  54011.370    -3.484E-24
  54011.437    -1.052E-22
  54011.505    -4.226E-23
  54011.573     3.906E-23
  54011.641     1.149E-22
  54011.708     1.634E-22
  54011.776     1.708E-22
  54011.844     1.114E-22
  54011.912     7.548E-23
  54011.979     1.203E-22
  54012.047     2.368E-22
  54012.115     3.862E-22
  54012.183     5.562E-22
  54012.250     7.116E-22
  54012.318     7.656E-22
  54012.386     6.901E-22
  54012.453     6.439E-22
  54012.521     7.087E-22
  54012.589     6.518E-22
  54012.657     6.074E-22
  54012.724     6.899E-22
  54012.792     7.716E-22
  54012.860     7.488E-22
  54012.928     7.291E-22
  54012.995     7.183E-22
  54013.063     7.582E-22
  54013.131     8.058E-22
  54013.199     9.265E-22
  54013.266     8.780E-22
  54013.334     7.271E-22
  54013.402     6.560E-22
  54013.470     5.268E-22
  54013.537     4.595E-22
  54013.605     3.659E-22
  54013.673     2.434E-22
  54013.741    -8.181E-24
  54013.808    -9.954E-23
  54013.876    -1.219E-22
  54013.944    -7.922E-23
  54014.011    -2.113E-23
  54014.079    -4.371E-23
  54014.147     1.070E-24
  54014.215     8.319E-23
  54014.282     3.433E-22
  54014.350     4.293E-22
  54014.418     3.744E-22
  54014.486     1.944E-22
  54014.553    -3.925E-23
  54014.621    -1.530E-22
  54014.689    -1.824E-22
  54014.757    -1.236E-22
  54014.824    -8.954E-23
  54014.892    -6.682E-23
  54014.960    -7.886E-23
  54015.028    -1.537E-22
  54015.095    -1.448E-22
  54015.163    -1.466E-23
  54015.231     7.146E-23
  54015.299     2.151E-22
  54015.366     2.931E-22
  54015.434     1.660E-22
  54015.502     9.140E-23
  54015.570     1.008E-22
  54015.637    -1.110E-23
  54015.705    -4.161E-23
  54015.773    -2.713E-23
  54015.841     1.032E-22
  54015.908     2.343E-22
  54015.976     2.325E-22
  54016.044     1.218E-22
  54016.112     2.538E-23
  54016.179     1.285E-23
  54016.247    -3.563E-23
  54016.315    -1.287E-22
  54016.382    -1.828E-22
  54016.450    -1.901E-22
  54016.518    -1.745E-22
  54016.586    -2.859E-22
  54016.653    -3.137E-22
  54016.721    -2.117E-22
  54016.789    -2.148E-22
  54016.857    -2.934E-22
  54016.924    -2.051E-22
  54016.992    -1.220E-22
  54017.060    -7.303E-23
  54017.128    -8.933E-23
  54017.195    -2.168E-22
  54017.263    -1.983E-22
  54017.331    -1.347E-22
  54017.399    -1.911E-22
  54017.466    -2.458E-22
  54017.534    -2.757E-22
  54017.602    -3.452E-22
  54017.670    -2.628E-22
  54017.737    -1.079E-22
  54017.805     1.841E-23
  54017.873     1.050E-22
  54017.941     1.892E-22
  54018.008     1.981E-22
  54018.076     2.206E-22
  54018.144     2.887E-22
  54018.212     1.896E-22
  54018.279     1.270E-22
  54018.347     3.449E-23
  54018.415    -3.483E-23
  54018.483    -6.783E-23
  54018.550    -8.570E-23
  54018.618    -1.326E-22
  54018.686    -1.622E-22
  54018.754    -1.049E-22
  54018.821    -1.448E-22
  54018.889    -2.605E-22
  54018.957    -2.845E-22
  54019.025    -2.700E-22
  54019.092    -3.344E-22
  54019.160    -3.548E-22
  54019.228    -2.769E-22
  54019.296    -1.777E-22
  54019.363     2.289E-24
  54019.431     1.382E-22
  54019.499     1.014E-22
  54019.567    -2.218E-24
  54019.634    -1.459E-22
  54019.702    -2.035E-22
  54019.770    -1.678E-22
  54019.838    -1.118E-22
  54019.906    -2.019E-23
  54019.973     2.809E-23
  54020.041     5.583E-23
  54020.109     8.595E-23
  54020.177     4.064E-23
  54020.244     2.097E-23
  54020.312     4.157E-23
  54020.380     1.064E-22
  54020.448     1.765E-22
  54020.515     1.801E-22
  54020.583     1.947E-22
  54020.651     2.221E-22
  54020.719     2.535E-22
  54020.786     2.748E-22
  54020.854     7.901E-23
  54020.922     8.849E-24
  54020.990    -9.957E-23
  54021.057    -1.696E-22
  54021.125    -2.424E-22
  54021.193    -2.871E-22
  54021.261    -3.128E-22
  54021.328    -3.021E-22
  54021.396    -3.050E-22
  54021.464    -2.024E-22
  54021.532    -6.073E-24
  54021.599     2.619E-22
  54021.667     3.855E-22
  54021.735     4.994E-22
  54021.803     5.840E-22
  54021.870     6.559E-22
  54021.938     7.061E-22
  54022.006     5.664E-22
  54022.074     4.557E-22
  54022.141     4.877E-22
  54022.209     5.524E-22
  54022.277     4.824E-22
  54022.345     3.423E-22
  54022.413     1.047E-22
  54022.480    -4.295E-24
  54022.548     2.791E-23
  54022.616     1.590E-22
  54022.684     2.510E-22
  54022.751     2.849E-22
  54022.819     1.750E-22
  54022.887     3.181E-23
  54022.955    -4.634E-23
  54023.022    -1.738E-22
  54023.090    -2.258E-22
  54023.158    -1.630E-22
  54023.226    -4.280E-23
  54023.293     6.117E-23
  54023.361     1.821E-22
  54023.429     2.061E-22
  54023.497     2.230E-22
  54023.564     3.053E-22
  54023.632     5.049E-22
  54023.700     7.510E-22
  54023.768     9.120E-22
  54023.836     9.077E-22
  54023.903     8.539E-22
  54023.971     7.567E-22
  54024.039     6.762E-22
  54024.107     8.094E-22
  54024.174     9.077E-22
  54024.242     8.096E-22
  54024.310     6.742E-22
  54024.378     5.047E-22
  54024.445     3.799E-22
  54024.513     2.114E-22
  54024.581     1.778E-22
  54024.649     3.347E-22
  54024.716     5.194E-22
  54024.784     5.749E-22
  54024.852     5.554E-22
  54024.920     3.689E-22
  54024.988     1.075E-22
  54025.055    -3.920E-23
  54025.123    -2.472E-22
  54025.191    -2.768E-22
  54025.259    -7.512E-23
  54025.326     4.160E-23
  54025.394    -2.924E-23
  54025.462    -1.248E-22
  54025.530    -5.783E-23
  54025.597     4.294E-23
  54025.665     4.463E-23
  54025.733     1.862E-23
  54025.801     3.111E-23
  54025.868     1.989E-23
  54025.936     7.366E-23
  54026.004     1.630E-22
  54026.072     2.339E-22
  54026.140     2.102E-22
  54026.207     8.390E-23
  54026.275    -9.758E-23
  54026.343    -1.960E-22
  54026.411    -2.755E-22
  54026.478    -2.993E-22
  54026.546    -2.689E-22
  54026.614    -2.855E-22
  54026.682    -2.019E-22
  54026.749    -1.606E-22
  54026.817    -1.521E-22
  54026.885    -2.410E-22
  54026.953    -3.618E-22
  54027.021    -4.081E-22
  54027.088    -3.338E-22
  54027.156    -2.549E-22
  54027.224    -1.229E-22
  54027.292    -1.019E-22
  54027.359    -1.090E-22
  54027.427    -4.884E-23
  54027.495    -5.808E-23
  54027.563    -1.142E-22
  54027.630    -2.633E-22
  54027.698    -3.334E-22
  54027.766    -3.530E-22
  54027.834    -3.723E-22
  54027.902    -3.008E-22
  54027.969    -2.704E-22
  54028.037    -3.472E-22
  54028.105    -4.263E-22
  54028.173    -2.993E-22
  54028.240    -8.696E-23
  54028.308     6.412E-23
  54028.376     1.162E-22
  54028.444     8.400E-23
  54028.512     1.312E-22
  54028.579     1.873E-22
  54028.647     1.323E-22
  54028.715     1.069E-22
  54028.783    -8.780E-23
  54028.850    -2.498E-22
  54028.918    -2.951E-22
  54028.986    -3.595E-22
  54029.054    -4.521E-22
  54029.121    -4.236E-22
  54029.189    -4.049E-22
  54029.257    -4.095E-22
  54029.325    -3.501E-22
  54029.393    -3.802E-22
  54029.460    -3.194E-22
  54029.528    -2.847E-22
  54029.596    -2.109E-22
  54029.664    -1.531E-22
  54029.731    -5.604E-23
  54029.799     5.441E-23
  54029.867     1.352E-22
  54029.935     7.759E-23
  54030.003    -8.034E-24
  54030.070    -3.073E-23
  54030.138    -5.718E-23
  54030.206    -4.344E-23
  54030.274    -6.602E-24
  54030.341    -4.881E-23
  54030.409    -1.303E-22
  54030.477    -1.449E-22
  54030.545    -9.829E-23
  54030.613     8.612E-23
  54030.680     1.465E-22
  54030.748     1.761E-22
  54030.816     1.476E-22
  54030.884     1.319E-22
  54030.951     7.879E-23
  54031.019     1.043E-22
  54031.087     1.100E-22
  54031.157     6.254E-23
