 18O2;(7,0);79K;53227-541 cm-1;4748 pts
      WNO        SIGMA
  53227.099    -3.536E-23
  53227.165    -7.048E-23
  53227.230    -1.142E-22
  53227.296    -6.204E-23
  53227.362     7.904E-24
  53227.428     7.819E-23
  53227.494     4.278E-23
  53227.559    -8.882E-23
  53227.625    -2.019E-22
  53227.691    -2.280E-22
  53227.757    -1.328E-22
  53227.823    -1.067E-23
  53227.888     7.716E-23
  53227.954     1.301E-22
  53228.020     7.687E-23
  53228.086    -2.003E-23
  53228.151    -8.141E-23
  53228.217    -2.032E-23
  53228.283     3.223E-23
  53228.349    -4.689E-23
  53228.415    -1.169E-22
  53228.480    -1.083E-22
  53228.546    -5.608E-23
  53228.612     5.791E-23
  53228.678     1.373E-22
  53228.743     4.000E-23
  53228.809    -1.003E-22
  53228.875    -1.353E-22
  53228.941    -1.354E-22
  53229.007    -1.443E-22
  53229.072    -1.009E-22
  53229.138    -1.185E-22
  53229.204    -4.879E-23
  53229.270     4.764E-23
  53229.335     1.004E-22
  53229.401     1.180E-22
  53229.467     1.710E-22
  53229.533     2.332E-22
  53229.599     2.778E-22
  53229.664     2.955E-22
  53229.730     3.223E-22
  53229.796     2.416E-22
  53229.862     8.160E-23
  53229.928     5.499E-23
  53229.993     1.167E-22
  53230.059     1.342E-22
  53230.125     1.252E-22
  53230.191     1.339E-22
  53230.256     1.515E-22
  53230.322     1.958E-22
  53230.388     1.957E-22
  53230.454     4.501E-23
  53230.520    -9.540E-23
  53230.585    -1.130E-22
  53230.651    -9.569E-23
  53230.717    -1.711E-23
  53230.783     7.955E-23
  53230.849     1.680E-22
  53230.914     2.659E-22
  53230.980     3.016E-22
  53231.046     2.835E-22
  53231.112     2.476E-22
  53231.178     1.318E-22
  53231.243     4.325E-23
  53231.309     1.670E-23
  53231.375     6.059E-23
  53231.441     1.489E-22
  53231.506     2.735E-22
  53231.572     3.541E-22
  53231.638     3.720E-22
  53231.704     3.719E-22
  53231.770     3.177E-22
  53231.835     3.626E-22
  53231.901     3.354E-22
  53231.967     2.100E-22
  53232.033     1.299E-22
  53232.099     5.898E-23
  53232.164     5.883E-23
  53232.230     4.106E-23
  53232.296     4.972E-23
  53232.362     1.026E-22
  53232.428     2.268E-22
  53232.493     3.161E-22
  53232.559     3.429E-22
  53232.625     3.608E-22
  53232.691     2.798E-22
  53232.757     1.904E-22
  53232.822     1.547E-22
  53232.888     1.368E-22
  53232.954     1.989E-22
  53233.020     2.612E-22
  53233.085     2.700E-22
  53233.151     3.057E-22
  53233.217     2.876E-22
  53233.283     2.696E-22
  53233.349     3.142E-22
  53233.414     2.514E-22
  53233.480     2.781E-22
  53233.546     3.497E-22
  53233.612     4.127E-22
  53233.678     4.760E-22
  53233.743     4.940E-22
  53233.809     4.394E-22
  53233.875     4.302E-22
  53233.941     4.482E-22
  53234.007     4.118E-22
  53234.072     3.486E-22
  53234.138     2.766E-22
  53234.204     2.407E-22
  53234.270     3.391E-22
  53234.336     4.202E-22
  53234.401     4.019E-22
  53234.467     3.928E-22
  53234.533     3.026E-22
  53234.599     2.666E-22
  53234.665     2.754E-22
  53234.730     2.932E-22
  53234.796     3.020E-22
  53234.862     2.929E-22
  53234.928     2.928E-22
  53234.994     3.465E-22
  53235.059     4.095E-22
  53235.125     3.913E-22
  53235.191     3.371E-22
  53235.257     2.831E-22
  53235.323     3.188E-22
  53235.388     3.817E-22
  53235.454     4.811E-22
  53235.520     5.082E-22
  53235.586     4.990E-22
  53235.652     4.263E-22
  53235.717     2.731E-22
  53235.783     1.481E-22
  53235.849     1.125E-22
  53235.915     1.212E-22
  53235.981     8.567E-23
  53236.046     1.121E-22
  53236.112     6.770E-23
  53236.178    -2.048E-23
  53236.244    -9.941E-23
  53236.310    -1.344E-22
  53236.375    -9.097E-23
  53236.441    -3.501E-24
  53236.507     1.022E-22
  53236.573     1.552E-22
  53236.639     1.640E-22
  53236.704     1.195E-22
  53236.770     1.016E-22
  53236.836     2.201E-23
  53236.902    -3.963E-23
  53236.968    -4.672E-24
  53237.033     1.365E-22
  53237.099     2.164E-22
  53237.165     1.539E-22
  53237.231     1.716E-22
  53237.297     1.981E-22
  53237.363     2.337E-22
  53237.428     2.425E-22
  53237.494     2.512E-22
  53237.560     2.511E-22
  53237.626     2.599E-22
  53237.692     1.883E-22
  53237.757     1.349E-22
  53237.823     1.347E-22
  53237.889     1.434E-22
  53237.955     6.360E-23
  53238.021     1.165E-22
  53238.086     2.410E-22
  53238.152     3.305E-22
  53238.218     3.304E-22
  53238.284     2.495E-22
  53238.350     2.136E-22
  53238.415     1.600E-22
  53238.481     1.688E-22
  53238.547     2.489E-22
  53238.613     4.016E-22
  53238.679     4.739E-22
  53238.744     4.103E-22
  53238.810     3.560E-22
  53238.876     3.739E-22
  53238.942     3.738E-22
  53239.008     3.196E-22
  53239.074     2.567E-22
  53239.139     2.565E-22
  53239.205     1.850E-22
  53239.271     1.659E-23
  53239.337    -8.008E-23
  53239.403    -1.239E-22
  53239.468    -1.240E-22
  53239.534    -5.426E-23
  53239.600     2.466E-23
  53239.666     1.129E-22
  53239.732     2.552E-22
  53239.797     3.448E-22
  53239.863     3.357E-22
  53239.929     3.176E-22
  53239.995     3.534E-22
  53240.061     4.799E-22
  53240.127     6.168E-22
  53240.192     6.718E-22
  53240.258     6.257E-22
  53240.324     5.067E-22
  53240.390     3.976E-22
  53240.456     3.254E-22
  53240.521     2.445E-22
  53240.587     1.730E-22
  53240.653     1.284E-22
  53240.719     1.105E-22
  53240.785     2.203E-23
  53240.850    -6.594E-23
  53240.916    -7.484E-23
  53240.982    -4.871E-23
  53241.048    -4.963E-24
  53241.114     3.686E-24
  53241.180     2.115E-23
  53241.245     6.511E-23
  53241.311     9.149E-23
  53241.377     1.091E-22
  53241.443     1.178E-22
  53241.509     1.088E-22
  53241.574     1.175E-22
  53241.640     1.795E-22
  53241.706     1.705E-22
  53241.772     1.437E-22
  53241.838     1.080E-22
  53241.904     1.345E-22
  53241.969     1.521E-22
  53242.035     1.431E-22
  53242.101     2.053E-22
  53242.167     2.767E-22
  53242.233     2.676E-22
  53242.298     2.585E-22
  53242.364     9.800E-23
  53242.430     3.599E-23
  53242.496     8.886E-23
  53242.562     1.419E-22
  53242.628     1.684E-22
  53242.693     1.327E-22
  53242.759     1.771E-22
  53242.825     1.591E-22
  53242.891     7.029E-23
  53242.957    -4.164E-25
  53243.023    -2.693E-23
  53243.088    -6.217E-23
  53243.154    -6.231E-23
  53243.220     1.660E-23
  53243.286    -3.630E-23
  53243.352    -1.501E-22
  53243.417    -2.198E-22
  53243.483    -2.977E-22
  53243.549    -1.505E-22
  53243.615     1.307E-22
  53243.681     3.362E-22
  53243.747     3.992E-22
  53243.812     3.449E-22
  53243.878     2.460E-22
  53243.944     1.388E-22
  53244.010     7.664E-23
  53244.076     6.765E-23
  53244.141     1.651E-22
  53244.207     2.006E-22
  53244.273     1.826E-22
  53244.339     1.380E-22
  53244.405     1.023E-22
  53244.471     1.377E-22
  53244.536     1.375E-22
  53244.602     9.302E-23
  53244.668     9.288E-23
  53244.734     1.282E-22
  53244.800     1.725E-22
  53244.866     2.617E-22
  53244.931     3.244E-22
  53244.997     2.435E-22
  53245.063     1.897E-22
  53245.129     2.611E-22
  53245.195     2.699E-22
  53245.261     3.237E-22
  53245.326     4.229E-22
  53245.392     4.046E-22
  53245.458     3.322E-22
  53245.524     2.334E-22
  53245.590     1.797E-22
  53245.656     9.068E-23
  53245.721    -1.537E-23
  53245.787    -1.551E-23
  53245.853     1.074E-23
  53245.919     2.822E-23
  53245.985     7.224E-23
  53246.050     1.697E-22
  53246.116     2.679E-22
  53246.182     3.396E-22
  53246.248     3.936E-22
  53246.314     4.297E-22
  53246.380     3.843E-22
  53246.445     2.851E-22
  53246.511     2.133E-22
  53246.577     1.775E-22
  53246.643     1.684E-22
  53246.709     2.307E-22
  53246.775     2.933E-22
  53246.840     3.022E-22
  53246.906     3.380E-22
  53246.972     2.839E-22
  53247.038     2.032E-22
  53247.104     1.052E-22
  53247.170     1.317E-22
  53247.235     1.404E-22
  53247.301     1.848E-22
  53247.367     2.114E-22
  53247.433     2.381E-22
  53247.499     2.827E-22
  53247.565     1.931E-22
  53247.630     3.323E-23
  53247.696    -9.869E-23
  53247.762    -1.250E-22
  53247.828    -7.272E-23
  53247.894    -1.428E-22
  53247.960    -1.778E-22
  53248.025    -1.256E-22
  53248.091    -2.944E-23
  53248.157     4.089E-23
  53248.223     1.471E-22
  53248.289     2.362E-22
  53248.355     2.629E-22
  53248.420     2.269E-22
  53248.486     1.910E-22
  53248.552     1.998E-22
  53248.618     1.373E-22
  53248.684     1.017E-22
  53248.750     3.074E-23
  53248.816    -4.862E-23
  53248.881    -4.876E-23
  53248.947    -7.522E-23
  53249.013    -7.536E-23
  53249.079    -5.798E-23
  53249.145     1.222E-23
  53249.211     7.390E-23
  53249.276     1.193E-23
  53249.342     2.942E-23
  53249.408     1.622E-22
  53249.474     2.335E-22
  53249.540     2.334E-22
  53249.606     2.243E-22
  53249.671     2.510E-22
  53249.737     1.972E-22
  53249.803     1.703E-22
  53249.869     1.434E-22
  53249.935     1.433E-22
  53250.001     1.431E-22
  53250.066     1.786E-22
  53250.132     2.142E-22
  53250.198     1.160E-22
  53250.264     4.503E-23
  53250.330     8.912E-23
  53250.396     1.511E-22
  53250.462     1.866E-22
  53250.527     1.420E-22
  53250.593     1.063E-22
  53250.659     9.725E-23
  53250.725     1.149E-22
  53250.791     1.414E-22
  53250.857     1.323E-22
  53250.922     6.124E-23
  53250.988     1.693E-23
  53251.054     7.966E-24
  53251.120    -1.860E-23
  53251.186     5.181E-23
  53251.252     1.938E-22
  53251.317     2.563E-22
  53251.383     2.472E-22
  53251.449     1.221E-22
  53251.515     1.576E-23
  53251.581    -2.842E-23
  53251.647     3.311E-23
  53251.713     3.296E-23
  53251.778     6.818E-23
  53251.844     1.212E-22
  53251.910     1.033E-22
  53251.976     1.032E-22
  53252.042     9.417E-23
  53252.108     6.745E-23
  53252.173     2.311E-23
  53252.239     4.946E-23
  53252.305     6.701E-23
  53252.371     2.267E-23
  53252.437    -3.033E-23
  53252.503    -7.438E-23
  53252.569    -2.183E-23
  53252.634    -1.317E-23
  53252.700     4.297E-24
  53252.766     4.829E-23
  53252.832     5.698E-23
  53252.898     6.569E-23
  53252.964     1.187E-22
  53253.029     1.809E-22
  53253.095     2.076E-22
  53253.161     2.522E-22
  53253.227     3.059E-22
  53253.293     3.508E-22
  53253.359     3.778E-22
  53253.425     3.867E-22
  53253.490     4.137E-22
  53253.556     4.408E-22
  53253.622     5.501E-22
  53253.688     5.957E-22
  53253.754     5.223E-22
  53253.820     4.130E-22
  53253.886     2.595E-22
  53253.951     1.165E-22
  53254.017     1.018E-23
  53254.083    -6.913E-23
  53254.149    -6.928E-23
  53254.215     2.739E-23
  53254.281     1.871E-22
  53254.347     2.406E-22
  53254.412     2.673E-22
  53254.478     3.302E-22
  53254.544     2.760E-22
  53254.610     2.489E-22
  53254.676     2.309E-22
  53254.742     2.397E-22
  53254.807     2.575E-22
  53254.873     3.023E-22
  53254.939     2.392E-22
  53255.005     1.320E-22
  53255.071    -9.799E-24
  53255.137    -8.901E-23
  53255.203    -2.113E-22
  53255.268    -2.375E-22
  53255.334    -1.245E-22
  53255.400     2.474E-23
  53255.466     1.844E-22
  53255.532     3.368E-22
  53255.598     4.090E-22
  53255.664     4.089E-22
  53255.729     3.364E-22
  53255.795     2.732E-22
  53255.861     2.193E-22
  53255.927     1.566E-22
  53255.993     1.743E-22
  53256.059     2.368E-22
  53256.125     2.545E-22
  53256.190     2.723E-22
  53256.256     2.632E-22
  53256.322     2.451E-22
  53256.388     2.540E-22
  53256.454     3.167E-22
  53256.520     3.798E-22
  53256.586     4.340E-22
  53256.651     3.795E-22
  53256.717     3.162E-22
  53256.783     2.620E-22
  53256.849     2.440E-22
  53256.915     2.707E-22
  53256.981     3.066E-22
  53257.047     3.334E-22
  53257.112     3.694E-22
  53257.178     3.783E-22
  53257.244     3.601E-22
  53257.310     2.968E-22
  53257.376     2.697E-22
  53257.442     2.785E-22
  53257.508     2.425E-22
  53257.574     2.693E-22
  53257.639     3.412E-22
  53257.705     3.681E-22
  53257.771     3.770E-22
  53257.837     3.859E-22
  53257.903     3.135E-22
  53257.969     2.415E-22
  53258.035     1.608E-22
  53258.100     1.340E-22
  53258.166     1.605E-22
  53258.232     1.337E-22
  53258.298     9.797E-23
  53258.364     8.895E-23
  53258.430     1.243E-22
  53258.496     1.420E-22
  53258.561     1.775E-22
  53258.627     1.952E-22
  53258.693     1.415E-22
  53258.759     7.920E-23
  53258.825     5.247E-23
  53258.891     1.144E-22
  53258.957     1.499E-22
  53259.023     1.943E-22
  53259.088     2.300E-22
  53259.154     2.299E-22
  53259.220     1.760E-22
  53259.286     1.224E-22
  53259.352     6.901E-23
  53259.418     2.462E-23
  53259.484    -2.011E-24
  53259.549     4.201E-23
  53259.615     1.128E-22
  53259.681     1.661E-22
  53259.747     2.554E-22
  53259.813     2.643E-22
  53259.879     2.014E-22
  53259.945     1.566E-22
  53260.011     1.475E-22
  53260.076     1.741E-22
  53260.142     2.097E-22
  53260.208     2.006E-22
  53260.274     2.722E-22
  53260.340     3.532E-22
  53260.406     3.983E-22
  53260.472     3.619E-22
  53260.537     2.986E-22
  53260.603     1.373E-22
  53260.669     8.381E-23
  53260.735     1.637E-22
  53260.801     1.904E-22
  53260.867     2.260E-22
  53260.933     2.438E-22
  53260.999     1.364E-22
  53261.064     2.978E-23
  53261.130     5.618E-23
  53261.196     6.490E-23
  53261.262     5.589E-23
  53261.328     1.152E-23
  53261.394    -6.272E-24
  53261.460    -1.524E-23
  53261.526     2.256E-24
  53261.591    -6.713E-24
  53261.657    -5.089E-23
  53261.723    -1.736E-22
  53261.789    -2.780E-22
  53261.855    -2.955E-22
  53261.921    -2.697E-22
  53261.987    -2.698E-22
  53262.053    -2.179E-22
  53262.118    -1.133E-22
  53262.184    -7.842E-23
  53262.250     9.467E-24
  53262.316     3.583E-23
  53262.382     3.569E-23
  53262.448     1.786E-23
  53262.514    -2.640E-23
  53262.580    -2.655E-23
  53262.645    -3.550E-23
  53262.711    -6.203E-23
  53262.777    -7.974E-23
  53262.843    -7.111E-23
  53262.909    -1.501E-22
  53262.975    -2.025E-22
  53263.041    -1.591E-22
  53263.107    -1.330E-22
  53263.172    -2.787E-23
  53263.238     1.225E-22
  53263.304     1.759E-22
  53263.370     1.400E-22
  53263.436     1.310E-22
  53263.502     2.022E-22
  53263.568     2.290E-22
  53263.634     2.378E-22
  53263.699     1.660E-22
  53263.765     1.570E-22
  53263.831     1.836E-22
  53263.897     2.462E-22
  53263.963     2.550E-22
  53264.029     2.549E-22
  53264.095     2.099E-22
  53264.161     1.739E-22
  53264.226     1.381E-22
  53264.292     4.909E-24
  53264.358    -1.008E-22
  53264.424    -3.947E-23
  53264.490     1.019E-22
  53264.556     1.731E-22
  53264.622     2.177E-22
  53264.688     2.085E-22
  53264.754     1.013E-22
  53264.819    -5.094E-24
  53264.885    -9.322E-23
  53264.951    -1.197E-22
  53265.017    -8.474E-23
  53265.083     3.145E-24
  53265.149     1.005E-22
  53265.215     1.716E-22
  53265.281     1.714E-22
  53265.346     2.160E-22
  53265.412     2.697E-22
  53265.478     3.417E-22
  53265.544     4.050E-22
  53265.610     3.686E-22
  53265.676     2.692E-22
  53265.742     2.152E-22
  53265.808     2.150E-22
  53265.874     1.255E-22
  53265.939     2.775E-23
  53266.005    -7.817E-23
  53266.071    -1.484E-22
  53266.137    -1.223E-22
  53266.203    -2.582E-23
  53266.269     1.817E-23
  53266.335     9.184E-24
  53266.401     5.328E-23
  53266.466     7.087E-23
  53266.532     8.742E-24
  53266.598    -7.071E-23
  53266.664    -2.685E-23
  53266.730     7.028E-23
  53266.796     1.591E-22
  53266.862     1.858E-22
  53266.928     1.499E-22
  53266.994     1.676E-22
  53267.059     2.571E-22
  53267.125     3.110E-22
  53267.191     2.928E-22
  53267.257     2.566E-22
  53267.323     1.758E-22
  53267.389     5.994E-23
  53267.455    -5.503E-23
  53267.521    -1.691E-22
  53267.587    -2.823E-22
  53267.652    -2.911E-22
  53267.718    -2.653E-22
  53267.784    -1.784E-22
  53267.850    -9.984E-23
  53267.916    -4.726E-23
  53267.982     5.506E-24
  53268.048     1.420E-23
  53268.114     4.060E-23
  53268.180     1.390E-23
  53268.245     3.145E-23
  53268.311     2.245E-23
  53268.377    -7.468E-23
  53268.443    -6.604E-23
  53268.509    -2.215E-23
  53268.575     3.071E-23
  53268.641     5.714E-23
  53268.707     2.157E-23
  53268.773    -2.274E-23
  53268.839    -4.052E-23
  53268.904    -1.110E-22
  53268.970    -1.286E-22
  53269.036    -5.857E-23
  53269.102    -5.827E-24
  53269.168    -2.362E-23
  53269.234    -2.377E-23
  53269.300    -1.510E-23
  53269.366    -4.169E-23
  53269.432    -4.184E-23
  53269.497    -2.436E-23
  53269.563     1.262E-22
  53269.629     2.603E-22
  53269.695     3.142E-22
  53269.761     3.231E-22
  53269.827     2.689E-22
  53269.893     1.880E-22
  53269.959     5.420E-23
  53270.025    -1.671E-23
  53270.090     9.636E-24
  53270.156     9.489E-24
  53270.222    -8.329E-24
  53270.288    -3.494E-23
  53270.354    -1.405E-22
  53270.420    -2.626E-22
  53270.486    -3.147E-22
  53270.552    -3.408E-22
  53270.618    -2.370E-22
  53270.684    -4.464E-23
  53270.749     7.018E-23
  53270.815     1.412E-22
  53270.881     1.858E-22
  53270.947     2.035E-22
  53271.013     1.586E-22
  53271.079     1.050E-22
  53271.145     4.269E-23
  53271.211     2.483E-23
  53271.277     5.126E-23
  53271.343     1.222E-22
  53271.408     1.667E-22
  53271.474     2.652E-22
  53271.540     4.007E-22
  53271.606     4.460E-22
  53271.672     3.913E-22
  53271.738     2.916E-22
  53271.804     1.748E-22
  53271.870     1.478E-22
  53271.936     2.912E-22
  53272.002     4.178E-22
  53272.067     4.541E-22
  53272.133     4.084E-22
  53272.199     3.448E-22
  53272.265     2.905E-22
  53272.331     2.633E-22
  53272.397     2.093E-22
  53272.463     2.181E-22
  53272.529     2.000E-22
  53272.595     1.462E-22
  53272.661     1.104E-22
  53272.726     1.280E-22
  53272.792     1.279E-22
  53272.858     1.099E-22
  53272.924     1.902E-22
  53272.990     2.349E-22
  53273.056     2.617E-22
  53273.122     3.066E-22
  53273.188     2.974E-22
  53273.254     2.432E-22
  53273.320     1.089E-22
  53273.386    -6.562E-24
  53273.451    -7.722E-23
  53273.517    -1.475E-22
  53273.583    -1.564E-22
  53273.649    -5.126E-23
  53273.715     6.356E-23
  53273.781     1.614E-22
  53273.847     2.599E-22
  53273.913     3.139E-22
  53273.979     3.589E-22
  53274.045     2.865E-22
  53274.110     1.607E-22
  53274.176     1.516E-22
  53274.242     1.247E-22
  53274.308     9.779E-23
  53274.374     1.601E-22
  53274.440     1.868E-22
  53274.506     2.405E-22
  53274.572     2.313E-22
  53274.638     2.132E-22
  53274.704     1.326E-22
  53274.770     6.120E-23
  53274.835     3.444E-23
  53274.901    -4.525E-23
  53274.967    -1.508E-22
  53275.033    -1.859E-22
  53275.099    -1.423E-22
  53275.165    -1.249E-22
  53275.231    -7.240E-23
  53275.297     6.850E-24
  53275.363     3.327E-23
  53275.429     5.973E-23
  53275.495     5.958E-23
  53275.560     7.720E-23
  53275.626     9.484E-23
  53275.692     1.214E-22
  53275.758     1.213E-22
  53275.824     3.223E-23
  53275.890     6.758E-23
  53275.956     1.923E-22
  53276.022     3.453E-22
  53276.088     3.633E-22
  53276.154     3.088E-22
  53276.220     2.366E-22
  53276.286     2.006E-22
  53276.351     2.273E-22
  53276.417     2.902E-22
  53276.483     2.901E-22
  53276.549     2.449E-22
  53276.615     1.283E-22
  53276.681    -5.087E-24
  53276.747    -3.173E-23
  53276.813    -7.594E-23
  53276.879    -1.112E-22
  53276.945    -9.382E-23
  53277.011    -4.114E-23
  53277.076     7.381E-23
  53277.142     1.093E-22
  53277.208     1.359E-22
  53277.274     1.268E-22
  53277.340     1.999E-23
  53277.406    -1.555E-23
  53277.472     1.084E-23
  53277.538     5.502E-23
  53277.604     1.439E-22
  53277.670     7.249E-23
  53277.736     4.570E-23
  53277.802     5.443E-23
  53277.867     6.316E-23
  53277.933     5.413E-23
  53277.999     6.287E-23
  53278.065     5.384E-23
  53278.131     1.249E-22
  53278.197     2.053E-22
  53278.263     1.961E-22
  53278.329     1.334E-22
  53278.395     1.422E-22
  53278.461     2.047E-22
  53278.527     1.776E-22
  53278.593     5.266E-23
  53278.659    -1.240E-22
  53278.724    -2.116E-22
  53278.790    -2.205E-22
  53278.856    -1.944E-22
  53278.922    -2.120E-22
  53278.988    -2.296E-22
  53279.054    -2.819E-22
  53279.120    -3.254E-22
  53279.186    -3.255E-22
  53279.252    -3.430E-22
  53279.318    -3.690E-22
  53279.384    -4.122E-22
  53279.450    -3.693E-22
  53279.515    -2.829E-22
  53279.581    -1.873E-22
  53279.647    -9.986E-23
  53279.713    -4.718E-23
  53279.779     1.453E-23
  53279.845     7.652E-23
  53279.911     1.477E-22
  53279.977     1.834E-22
  53280.043     1.832E-22
  53280.109     1.383E-22
  53280.175     1.365E-23
  53280.241    -8.360E-23
  53280.307    -1.101E-22
  53280.372    -1.454E-22
  53280.438    -1.367E-22
  53280.504    -1.456E-22
  53280.570    -2.418E-22
  53280.636    -2.246E-22
  53280.702    -2.682E-22
  53280.768    -2.597E-22
  53280.834    -2.163E-22
  53280.900    -2.165E-22
  53280.966    -2.340E-22
  53281.032    -1.556E-22
  53281.098    -4.146E-23
  53281.164     4.691E-23
  53281.230     1.180E-22
  53281.295     9.998E-23
  53281.361     5.535E-23
  53281.427     3.744E-23
  53281.493     1.956E-23
  53281.559    -2.483E-23
  53281.625    -9.549E-23
  53281.691    -6.924E-23
  53281.757    -5.175E-23
  53281.823    -8.714E-23
  53281.889    -2.557E-23
  53281.955    -1.688E-23
  53282.021    -2.586E-23
  53282.087    -8.327E-24
  53282.152     2.695E-23
  53282.218     4.455E-23
  53282.284     2.666E-23
  53282.350     1.765E-23
  53282.416     2.636E-23
  53282.482     8.491E-24
  53282.548     8.344E-24
  53282.614     1.706E-23
  53282.680    -9.654E-24
  53282.746     2.563E-23
  53282.812     3.435E-23
  53282.878     3.420E-23
  53282.944     6.959E-23
  53283.010     1.229E-22
  53283.076     2.663E-22
  53283.141     3.113E-22
  53283.207     2.390E-22
  53283.273     1.581E-22
  53283.339     6.870E-23
  53283.405     4.190E-23
  53283.471    -2.027E-23
  53283.537    -1.699E-22
  53283.603    -2.573E-22
  53283.669    -3.009E-22
  53283.735    -2.663E-22
  53283.801    -1.793E-22
  53283.867    -1.181E-22
  53283.933    -1.358E-22
  53283.999    -1.447E-22
  53284.065    -1.097E-22
  53284.130    -1.099E-22
  53284.196    -1.012E-22
  53284.262    -1.102E-22
  53284.328    -1.015E-22
  53284.394    -1.193E-22
  53284.460    -1.808E-22
  53284.526    -1.371E-22
  53284.592    -1.021E-22
  53284.658    -1.198E-22
  53284.724    -5.839E-23
  53284.790     4.768E-23
  53284.856     1.366E-22
  53284.922     2.532E-22
  53284.988     1.811E-22
  53285.054     3.821E-23
  53285.119    -2.395E-23
  53285.185    -3.294E-23
  53285.251    -2.425E-23
  53285.317     3.762E-23
  53285.383     2.002E-24
  53285.449    -1.216E-22
  53285.515    -2.268E-22
  53285.581    -1.745E-22
  53285.647    -6.045E-23
  53285.713    -4.295E-23
  53285.779    -1.048E-22
  53285.845    -7.853E-23
  53285.911    -8.032E-24
  53285.977     8.061E-23
  53286.043     1.519E-22
  53286.109     1.071E-22
  53286.175     3.570E-23
  53286.240    -8.769E-24
  53286.306    -1.777E-23
  53286.372     4.414E-23
  53286.438    -9.212E-24
  53286.504    -5.355E-23
  53286.570    -4.487E-23
  53286.636    -5.385E-23
  53286.702     1.678E-23
  53286.768     7.764E-24
  53286.834     4.311E-23
  53286.900     3.408E-23
  53286.966    -4.576E-23
  53287.032    -1.939E-23
  53287.098     5.141E-23
  53287.164     6.905E-23
  53287.230     6.890E-23
  53287.296    -1.113E-23
  53287.361    -1.522E-22
  53287.427    -1.786E-22
  53287.493    -6.459E-23
  53287.559     2.373E-23
  53287.625     4.134E-23
  53287.691     3.231E-23
  53287.757     5.882E-23
  53287.823     7.647E-23
  53287.889     9.415E-23
  53287.955     8.509E-23
  53288.021     4.934E-23
  53288.087     4.919E-23
  53288.153     8.465E-23
  53288.219     1.381E-22
  53288.285     2.276E-22
  53288.351     2.997E-22
  53288.417     2.724E-22
  53288.483     1.912E-22
  53288.548     1.463E-22
  53288.614     5.690E-23
  53288.680     3.485E-24
  53288.746     3.883E-23
  53288.812     5.646E-23
  53288.878     4.742E-23
  53288.944     4.727E-23
  53289.010     6.492E-23
  53289.076     3.809E-23
  53289.142     1.132E-23
  53289.208    -3.310E-23
  53289.274    -6.857E-23
  53289.340    -8.635E-23
  53289.406    -5.122E-23
  53289.472    -5.136E-23
  53289.538    -4.268E-23
  53289.604     5.469E-23
  53289.670     1.527E-22
  53289.736     1.526E-22
  53289.801     2.759E-23
  53289.867    -3.458E-23
  53289.933    -9.648E-23
  53289.999    -1.844E-22
  53290.065    -1.933E-22
  53290.131    -1.496E-22
  53290.197    -5.299E-23
  53290.263     8.884E-23
  53290.329     1.602E-22
  53290.395     7.963E-23
  53290.461    -1.821E-23
  53290.527    -6.255E-23
  53290.593    -7.152E-23
  53290.659    -9.429E-25
  53290.725     1.504E-22
  53290.791     2.040E-22
  53290.857     1.769E-22
  53290.923     1.052E-22
  53290.989     6.939E-23
  53291.055     1.228E-22
  53291.121     2.303E-22
  53291.186     2.121E-22
  53291.252     5.100E-23
  53291.318    -2.013E-23
  53291.384    -6.447E-23
  53291.450    -9.988E-23
  53291.516    -1.172E-23
  53291.582     1.395E-22
  53291.648     1.841E-22
  53291.714     2.470E-22
  53291.780     3.101E-22
  53291.846     2.287E-22
  53291.912     6.732E-23
  53291.978    -2.161E-23
  53292.044    -9.240E-23
  53292.110    -8.373E-23
  53292.176     2.227E-23
  53292.242     6.659E-23
  53292.308     1.310E-23
  53292.374    -9.314E-23
  53292.440    -9.328E-23
  53292.506    -5.815E-23
  53292.572    -5.225E-24
  53292.638     3.012E-23
  53292.703     2.109E-23
  53292.769     4.760E-23
  53292.835     5.635E-23
  53292.901     1.177E-23
  53292.967    -4.152E-23
  53293.033     4.701E-23
  53293.099     1.630E-22
  53293.165     2.437E-22
  53293.231     2.707E-22
  53293.297     3.157E-22
  53293.363     2.884E-22
  53293.429     2.431E-22
  53293.495     2.881E-22
  53293.561     2.699E-22
  53293.627     2.157E-22
  53293.693     2.155E-22
  53293.759     6.319E-23
  53293.825    -9.639E-23
  53293.891    -2.368E-22
  53293.957    -3.326E-22
  53294.023    -2.980E-22
  53294.089    -1.673E-22
  53294.155     9.611E-26
  53294.221     1.964E-22
  53294.287     2.412E-22
  53294.352     1.781E-22
  53294.418     7.062E-23
  53294.484    -6.424E-25
  53294.550     1.696E-23
  53294.616     4.347E-23
  53294.682     8.786E-23
  53294.748     1.413E-22
  53294.814     1.681E-22
  53294.880     1.321E-22
  53294.946     1.230E-22
  53295.012     1.408E-22
  53295.078     1.227E-22
  53295.144     1.853E-22
  53295.210     2.031E-22
  53295.276     1.671E-22
  53295.342     2.028E-22
  53295.408     2.027E-22
  53295.474     2.295E-22
  53295.540     2.294E-22
  53295.606     1.843E-22
  53295.672     6.781E-23
  53295.738    -6.539E-23
  53295.804    -2.149E-22
  53295.870    -3.282E-22
  53295.936    -2.936E-22
  53296.002    -2.590E-22
  53296.068    -2.067E-22
  53296.134    -1.631E-22
  53296.200    -5.759E-23
  53296.265     5.758E-23
  53296.331     1.288E-22
  53296.397     1.825E-22
  53296.463     2.724E-22
  53296.529     3.539E-22
  53296.595     3.537E-22
  53296.661     3.627E-22
  53296.727     2.809E-22
  53296.793     2.086E-22
  53296.859     1.277E-22
  53296.925     5.610E-23
  53296.991     2.614E-24
  53297.057    -3.298E-23
  53297.123     4.675E-23
  53297.189     2.077E-22
  53297.255     2.978E-22
  53297.321     3.249E-22
  53297.387     3.156E-22
  53297.453     2.702E-22
  53297.519     2.160E-22
  53297.585     1.439E-22
  53297.651     1.169E-22
  53297.717     8.107E-23
  53297.783     1.077E-22
  53297.849     1.344E-22
  53297.915     2.421E-22
  53297.981     3.415E-22
  53298.047     3.869E-22
  53298.113     4.050E-22
  53298.179     3.320E-22
  53298.245     3.409E-22
  53298.311     3.136E-22
  53298.377     2.230E-22
  53298.443     2.139E-22
  53298.508     2.047E-22
  53298.574     2.046E-22
  53298.640     2.495E-22
  53298.706     2.674E-22
  53298.772     3.488E-22
  53298.838     4.399E-22
  53298.904     5.039E-22
  53298.970     5.313E-22
  53299.036     5.404E-22
  53299.102     4.759E-22
  53299.168     4.208E-22
  53299.234     3.024E-22
  53299.300     1.940E-22
  53299.366     2.208E-22
  53299.432     3.201E-22
  53299.498     4.475E-22
  53299.564     5.208E-22
  53299.630     5.667E-22
  53299.696     5.573E-22
  53299.762     6.034E-22
  53299.828     8.363E-22
  53299.894     9.684E-22
  53299.960     9.682E-22
  53300.026     9.207E-22
  53300.092     8.076E-22
  53300.158     6.953E-22
  53300.224     6.672E-22
  53300.290     6.950E-22
  53300.356     7.976E-22
  53300.422     8.915E-22
  53300.488     9.860E-22
  53300.554     9.574E-22
  53300.620     9.005E-22
  53300.686     9.192E-22
  53300.752     1.023E-21
  53300.818     1.148E-21
  53300.884     1.244E-21
  53300.950     1.282E-21
  53301.016     1.224E-21
  53301.082     1.061E-21
  53301.148     9.371E-22
  53301.214     9.180E-22
  53301.280     9.842E-22
  53301.346     1.003E-21
  53301.412     9.365E-22
  53301.478     7.389E-22
  53301.543     5.809E-22
  53301.609     5.438E-22
  53301.675     4.701E-22
  53301.741     4.060E-22
  53301.807     3.420E-22
  53301.873     3.692E-22
  53301.939     4.604E-22
  53302.005     5.614E-22
  53302.071     5.982E-22
  53302.137     5.334E-22
  53302.203     4.232E-22
  53302.269     3.774E-22
  53302.335     3.955E-22
  53302.401     4.045E-22
  53302.467     4.317E-22
  53302.533     3.677E-22
  53302.599     3.312E-22
  53302.665     3.038E-22
  53302.731     3.218E-22
  53302.797     4.036E-22
  53302.863     4.583E-22
  53302.929     4.673E-22
  53302.995     4.031E-22
  53303.061     2.848E-22
  53303.127     1.674E-22
  53303.193     8.665E-23
  53303.259     1.044E-22
  53303.325     2.120E-22
  53303.391     2.660E-22
  53303.457     3.020E-22
  53303.523     3.200E-22
  53303.589     2.836E-22
  53303.655     1.842E-22
  53303.721     1.212E-22
  53303.787     1.570E-22
  53303.853     2.830E-22
  53303.919     4.102E-22
  53303.985     5.293E-22
  53304.051     5.384E-22
  53304.117     5.290E-22
  53304.183     5.012E-22
  53304.249     3.912E-22
  53304.315     2.911E-22
  53304.381     2.366E-22
  53304.447     1.914E-22
  53304.513     1.823E-22
  53304.579     1.462E-22
  53304.645     1.013E-22
  53304.711     9.218E-23
  53304.777     1.547E-22
  53304.843     2.899E-22
  53304.909     3.806E-22
  53304.975     3.622E-22
  53305.041     3.076E-22
  53305.107     3.893E-22
  53305.173     3.891E-22
  53305.239     2.890E-22
  53305.305     2.075E-22
  53305.371     1.534E-22
  53305.437     1.353E-22
  53305.503     1.531E-22
  53305.569     1.709E-22
  53305.635     2.158E-22
  53305.701     2.337E-22
  53305.767     2.787E-22
  53305.833     2.605E-22
  53305.899     2.062E-22
  53305.965     1.790E-22
  53306.031     2.872E-22
  53306.097     3.506E-22
  53306.163     4.052E-22
  53306.229     3.776E-22
  53306.295     2.143E-22
  53306.361     7.062E-23
  53306.427    -9.656E-24
  53306.493    -6.298E-23
  53306.559    -5.428E-23
  53306.625    -1.219E-24
  53306.691     3.421E-23
  53306.757     1.144E-22
  53306.823     2.041E-22
  53306.889     2.310E-22
  53306.955     2.761E-22
  53307.021     3.759E-22
  53307.087     4.672E-22
  53307.153     4.946E-22
  53307.219     4.944E-22
  53307.285     4.209E-22
  53307.351     3.024E-22
  53307.417     1.309E-22
  53307.483     7.703E-23
  53307.549     5.011E-23
  53307.615     1.434E-23
  53307.681     2.309E-23
  53307.747     4.075E-23
  53307.813     1.031E-22
  53307.879     1.388E-22
  53307.945     1.207E-22
  53308.011     4.907E-23
  53308.077     4.001E-23
  53308.143     5.770E-23
  53308.209     5.755E-23
  53308.275    -1.380E-23
  53308.341    -1.025E-22
  53308.407    -2.297E-23
  53308.473     1.195E-22
  53308.539     3.270E-22
  53308.605     4.454E-22
  53308.671     4.545E-22
  53308.737     3.629E-22
  53308.803     2.719E-22
  53308.869     1.995E-22
  53308.935     1.096E-22
  53309.001     1.363E-22
  53309.067     2.261E-22
  53309.133     3.256E-22
  53309.199     3.984E-22
  53309.265     3.982E-22
  53309.331     3.707E-22
  53309.397     2.435E-22
  53309.463     1.353E-22
  53309.529     1.441E-22
  53309.595     2.340E-22
  53309.661     3.882E-22
  53309.727     5.256E-22
  53309.793     5.809E-22
  53309.859     5.992E-22
  53309.925     4.884E-22
  53309.991     2.693E-22
  53310.057     8.914E-23
  53310.123     1.761E-23
  53310.189    -4.470E-23
  53310.255    -2.712E-23
  53310.321     9.749E-23
  53310.387     1.332E-22
  53310.453     1.870E-22
  53310.519     1.688E-22
  53310.585     1.148E-22
  53310.651     1.505E-22
  53310.717     1.954E-22
  53310.783     2.494E-22
  53310.849     2.855E-22
  53310.915     2.310E-22
  53310.981     1.948E-22
  53311.047     1.497E-22
  53311.113     7.783E-23
  53311.179     4.197E-23
  53311.245    -1.158E-23
  53311.311     6.049E-24
  53311.377     5.937E-23
  53311.443     6.815E-23
  53311.509     3.231E-23
  53311.575     6.785E-23
  53311.641     9.453E-23
  53311.707     1.123E-22
  53311.773     4.063E-23
  53311.839    -3.954E-23
  53311.905    -2.194E-23
  53311.971     7.590E-23
  53312.037     1.654E-22
  53312.103     2.103E-22
  53312.169     2.463E-22
  53312.235     2.824E-22
  53312.301     2.189E-22
  53312.367     3.039E-23
  53312.433    -1.557E-22
  53312.499    -2.085E-22
  53312.565    -1.472E-22
  53312.631    -5.018E-23
  53312.697     7.427E-23
  53312.763     2.359E-22
  53312.829     3.082E-22
  53312.895     3.627E-22
  53312.961     2.898E-22
  53313.027     2.172E-22
  53313.093     1.540E-22
  53313.159     1.180E-22
  53313.225     1.178E-22
  53313.291     1.087E-22
  53313.357     2.817E-23
  53313.423    -7.582E-24
  53313.489     4.570E-23
  53313.555     9.918E-23
  53313.621     1.709E-22
  53313.687     1.617E-22
  53313.753     4.511E-23
  53313.819    -1.148E-22
  53313.885    -3.252E-22
  53313.951    -4.466E-22
  53314.017    -4.726E-22
  53314.083    -4.469E-22
  53314.149    -4.211E-22
  53314.215    -4.126E-22
  53314.281    -3.608E-22
  53314.347    -3.175E-22
  53314.413    -2.915E-22
  53314.480    -1.515E-22
  53314.546     6.119E-23
  53314.612     1.686E-22
  53314.678     2.135E-22
  53314.744     2.858E-22
  53314.810     3.766E-22
  53314.876     4.314E-22
  53314.942     4.404E-22
  53315.008     3.215E-22
  53315.074     2.127E-22
  53315.140     1.135E-22
  53315.206     4.185E-23
  53315.272    -1.173E-23
  53315.338    -1.188E-23
  53315.404    -2.980E-23
  53315.470     4.126E-23
  53315.536     1.306E-22
  53315.602     1.574E-22
  53315.668     1.483E-22
  53315.734     7.640E-23
  53315.800    -1.292E-23
  53315.866    -7.516E-23
  53315.932    -6.645E-23
  53315.998    -2.225E-23
  53316.064    -4.617E-24
  53316.130     2.194E-23
  53316.196     2.180E-23
  53316.262    -5.062E-24
  53316.328     3.041E-23
  53316.394     4.811E-23
  53316.460     3.391E-24
  53316.526     9.252E-23
  53316.592     1.372E-22
  53316.658     1.012E-22
  53316.724     1.459E-22
  53316.790     2.178E-22
  53316.856     2.448E-22
  53316.922     1.995E-22
  53316.988     1.094E-22
  53317.054     4.663E-23
  53317.120     5.541E-23
  53317.186     1.179E-22
  53317.252     3.074E-22
  53317.318     3.984E-22
  53317.384     4.441E-22
  53317.451     4.623E-22
  53317.517     3.980E-22
  53317.583     3.978E-22
  53317.649     3.977E-22
  53317.715     2.791E-22
  53317.781     1.615E-22
  53317.847     1.794E-22
  53317.913     2.063E-22
  53317.979     2.423E-22
  53318.045     2.784E-22
  53318.111     3.055E-22
  53318.177     3.417E-22
  53318.243     2.689E-22
  53318.309     2.054E-22
  53318.375     1.692E-22
  53318.441     1.600E-22
  53318.507     1.779E-22
  53318.573     1.597E-22
  53318.639     1.057E-22
  53318.705     6.973E-23
  53318.771     9.643E-23
  53318.837     1.772E-22
  53318.903     2.493E-22
  53318.969     2.672E-22
  53319.035     2.852E-22
  53319.101     2.760E-22
  53319.167     2.125E-22
  53319.233     1.044E-22
  53319.299     1.483E-23
  53319.365     3.251E-23
  53319.431     1.129E-22
  53319.497     1.937E-22
  53319.563     1.485E-22
  53319.629     1.394E-22
  53319.695     1.033E-22
  53319.762     9.421E-23
  53319.828     1.479E-22
  53319.894     1.208E-22
  53319.960     6.691E-23
  53320.026     7.571E-23
  53320.092     2.014E-22
  53320.158     3.738E-22
  53320.224     5.297E-22
  53320.290     6.129E-22
  53320.356     5.479E-22
  53320.422     3.549E-22
  53320.488     8.362E-23
  53320.554    -4.136E-23
  53320.620    -5.038E-23
  53320.686    -9.483E-23
  53320.752    -4.180E-23
  53320.818    -5.970E-23
  53320.884    -1.544E-23
  53320.950     7.363E-23
  53321.016     1.183E-22
  53321.082     1.271E-22
  53321.148     1.001E-22
  53321.214     1.053E-23
  53321.280    -7.432E-24
  53321.346    -1.648E-23
  53321.412     1.174E-24
  53321.478     1.885E-23
  53321.544     4.547E-23
  53321.611     2.747E-23
  53321.677     5.411E-23
  53321.743     8.080E-23
  53321.809     7.170E-23
  53321.875     3.580E-23
  53321.941     7.141E-23
  53322.007     1.971E-22
  53322.073     3.057E-22
  53322.139     2.873E-22
  53322.205     2.147E-22
  53322.271     1.694E-22
  53322.337     1.603E-22
  53322.403     2.052E-22
  53322.469     1.961E-22
  53322.535     1.059E-22
  53322.601    -1.040E-23
  53322.667    -1.434E-22
  53322.733    -1.436E-22
  53322.799    -2.863E-23
  53322.865     2.465E-23
  53322.931    -4.670E-23
  53322.997    -2.019E-23
  53323.063     2.421E-23
  53323.129     5.085E-23
  53323.195     2.034E-22
  53323.262     2.800E-22
  53323.328     2.255E-22
  53323.394     1.460E-22
  53323.460     1.206E-22
  53323.526     6.851E-23
  53323.592    -7.642E-23
  53323.658    -1.721E-22
  53323.724    -1.611E-22
  53323.790    -1.534E-22
  53323.856    -6.848E-23
  53323.922     1.883E-23
  53323.988     2.119E-23
  53324.054     3.733E-23
  53324.120     8.971E-23
  53324.186     1.154E-22
  53324.252     1.490E-22
  53324.318     2.283E-22
  53324.384     2.720E-22
  53324.450     1.618E-22
  53324.516     1.792E-23
  53324.582    -6.371E-23
  53324.648    -3.980E-23
  53324.714     5.776E-23
  53324.781     8.755E-23
  53324.847     5.538E-23
  53324.913    -1.380E-23
  53324.979    -1.034E-22
  53325.045    -9.529E-23
  53325.111    -4.911E-23
  53325.177     1.491E-23
  53325.243     9.577E-23
  53325.309     1.575E-22
  53325.375     1.619E-22
  53325.441     2.112E-22
  53325.507     2.215E-22
  53325.573     1.270E-22
  53325.639     2.201E-23
  53325.705    -4.106E-23
  53325.771    -6.913E-23
  53325.837    -7.907E-23
  53325.903    -7.767E-24
  53325.969     3.862E-23
  53326.035     1.226E-22
  53326.101     1.522E-22
  53326.168     9.692E-23
  53326.234     8.425E-23
  53326.300     8.070E-23
  53326.366     1.151E-22
  53326.432     7.718E-23
  53326.498     1.028E-23
  53326.564    -1.209E-23
  53326.630    -1.670E-23
  53326.696     1.268E-26
  53326.762     5.687E-23
  53326.828     9.806E-23
  53326.894     1.122E-22
  53326.960     1.228E-22
  53327.026     1.479E-22
  53327.092     1.567E-22
  53327.158     1.688E-22
  53327.224     1.431E-22
  53327.290     8.674E-23
  53327.356     7.424E-23
  53327.423     7.185E-23
  53327.489     2.419E-23
  53327.555     3.865E-23
  53327.621     3.716E-23
  53327.687     1.442E-22
  53327.753     2.069E-22
  53327.819     2.538E-22
  53327.885     1.552E-22
  53327.951     7.374E-23
  53328.017     7.504E-23
  53328.083     1.494E-22
  53328.149     1.871E-22
  53328.215     1.434E-22
  53328.281     7.330E-23
  53328.347     5.722E-23
  53328.413     6.832E-23
  53328.479     6.237E-23
  53328.545     1.185E-22
  53328.612     6.254E-23
  53328.678     1.675E-24
  53328.744    -1.381E-22
  53328.810    -1.569E-22
  53328.876    -1.104E-22
  53328.942    -1.189E-22
  53329.008    -1.318E-23
  53329.074     1.321E-22
  53329.140     2.366E-22
  53329.206     3.030E-22
  53329.272     2.641E-22
  53329.338     1.875E-22
  53329.404     9.252E-23
  53329.470     7.063E-23
  53329.536     7.896E-23
  53329.602     1.333E-22
  53329.668     1.226E-22
  53329.734     1.577E-22
  53329.801     1.701E-22
  53329.867     1.905E-23
  53329.933    -6.002E-23
  53329.999    -6.719E-23
  53330.065    -8.348E-23
  53330.131    -9.826E-23
  53330.197    -8.761E-23
  53330.263     1.172E-23
  53330.329     5.646E-23
  53330.395     1.640E-22
  53330.461     2.820E-22
  53330.527     3.006E-22
  53330.593     3.076E-22
  53330.659     3.225E-22
  53330.725     2.750E-22
  53330.791     2.557E-22
  53330.858     2.196E-22
  53330.924     1.511E-22
  53330.990     1.281E-22
  53331.056     1.041E-22
  53331.122     8.647E-23
  53331.188    -8.663E-25
  53331.254     6.378E-23
  53331.320     2.393E-22
  53331.386     3.209E-22
  53331.452     3.507E-22
  53331.518     3.704E-22
  53331.584     3.734E-22
  53331.650     4.416E-22
  53331.716     5.201E-22
  53331.782     5.426E-22
  53331.849     5.417E-22
  53331.915     4.528E-22
  53331.981     3.750E-22
  53332.047     2.819E-22
  53332.113     2.165E-22
  53332.179     1.899E-22
  53332.245     1.731E-22
  53332.311     1.466E-22
  53332.377     2.208E-22
  53332.443     2.244E-22
  53332.509     1.735E-22
  53332.575     1.677E-22
  53332.641     1.330E-22
  53332.707     1.136E-22
  53332.773     1.478E-22
  53332.840     2.193E-22
  53332.906     2.163E-22
  53332.972     3.386E-22
  53333.038     4.563E-22
  53333.104     4.207E-22
  53333.170     3.303E-22
  53333.236     1.562E-22
  53333.302     6.357E-23
  53333.368     4.383E-23
  53333.434    -1.897E-24
  53333.500    -4.721E-24
  53333.566     3.832E-23
  53333.632     5.984E-23
  53333.698    -3.510E-23
  53333.764    -7.834E-23
  53333.831    -4.176E-23
  53333.897     3.168E-24
  53333.963     2.981E-23
  53334.029     3.799E-23
  53334.095     8.420E-23
  53334.161     1.463E-22
  53334.227     1.351E-22
  53334.293     8.728E-23
  53334.359     1.598E-22
  53334.425     1.611E-22
  53334.491     8.592E-23
  53334.557    -2.299E-23
  53334.623    -1.635E-22
  53334.689    -1.709E-22
  53334.756    -7.120E-23
  53334.822     1.062E-23
  53334.888     1.276E-22
  53334.954     2.929E-22
  53335.020     3.667E-22
  53335.086     2.882E-22
  53335.152     2.643E-22
  53335.218     2.309E-22
  53335.284     1.715E-22
  53335.350     1.447E-22
  53335.416     2.069E-22
  53335.482     3.171E-22
  53335.548     3.102E-22
  53335.615     2.210E-22
  53335.681     2.027E-22
  53335.747     2.807E-22
  53335.813     3.606E-22
  53335.879     4.918E-22
  53335.945     6.402E-22
  53336.011     6.652E-22
  53336.077     6.453E-22
  53336.143     6.337E-22
  53336.209     5.513E-22
  53336.275     5.426E-22
  53336.341     5.980E-22
  53336.407     5.978E-22
  53336.474     5.492E-22
  53336.540     5.583E-22
  53336.606     5.917E-22
  53336.672     5.389E-22
  53336.738     4.628E-22
  53336.804     3.743E-22
  53336.870     2.617E-22
  53336.936     2.269E-22
  53337.002     2.093E-22
  53337.068     2.271E-22
  53337.134     3.379E-22
  53337.200     4.501E-22
  53337.266     5.115E-22
  53337.333     6.041E-22
  53337.399     6.617E-22
  53337.465     6.545E-22
  53337.531     6.756E-22
  53337.597     6.187E-22
  53337.663     5.528E-22
  53337.729     4.854E-22
  53337.795     5.850E-22
  53337.861     6.258E-22
  53337.927     5.997E-22
  53337.993     6.379E-22
  53338.059     7.138E-22
  53338.126     7.950E-22
  53338.192     8.681E-22
  53338.258     9.255E-22
  53338.324     9.845E-22
  53338.390     1.052E-21
  53338.456     1.109E-21
  53338.522     1.087E-21
  53338.588     1.124E-21
  53338.654     1.288E-21
  53338.720     1.407E-21
  53338.786     1.506E-21
  53338.852     1.526E-21
  53338.919     1.534E-21
  53338.985     1.525E-21
  53339.051     1.499E-21
  53339.117     1.504E-21
  53339.183     1.499E-21
  53339.249     1.488E-21
  53339.315     1.456E-21
  53339.381     1.423E-21
  53339.447     1.477E-21
  53339.513     1.560E-21
  53339.579     1.683E-21
  53339.646     1.864E-21
  53339.712     2.018E-21
  53339.778     2.114E-21
  53339.844     2.220E-21
  53339.910     2.284E-21
  53339.976     2.285E-21
  53340.042     2.233E-21
  53340.108     2.211E-21
  53340.174     2.356E-21
  53340.240     2.525E-21
  53340.306     2.610E-21
  53340.372     2.651E-21
  53340.439     2.598E-21
  53340.505     2.619E-21
  53340.571     2.728E-21
  53340.637     2.862E-21
  53340.703     2.948E-21
  53340.769     3.046E-21
  53340.835     3.112E-21
  53340.901     3.101E-21
  53340.967     3.023E-21
  53341.033     2.931E-21
  53341.099     2.905E-21
  53341.166     2.849E-21
  53341.232     2.885E-21
  53341.298     2.812E-21
  53341.364     2.744E-21
  53341.430     2.786E-21
  53341.496     2.658E-21
  53341.562     2.478E-21
  53341.628     2.416E-21
  53341.694     2.323E-21
  53341.760     2.291E-21
  53341.826     2.301E-21
  53341.893     2.227E-21
  53341.959     2.027E-21
  53342.025     1.809E-21
  53342.091     1.665E-21
  53342.157     1.513E-21
  53342.223     1.451E-21
  53342.289     1.379E-21
  53342.355     1.360E-21
  53342.421     1.373E-21
  53342.487     1.368E-21
  53342.554     1.364E-21
  53342.620     1.304E-21
  53342.686     1.267E-21
  53342.752     1.274E-21
  53342.818     1.243E-21
  53342.884     1.220E-21
  53342.950     1.168E-21
  53343.016     1.106E-21
  53343.082     1.047E-21
  53343.148     9.407E-22
  53343.214     8.058E-22
  53343.281     7.358E-22
  53343.347     6.941E-22
  53343.413     7.195E-22
  53343.479     7.307E-22
  53343.545     8.682E-22
  53343.611     9.706E-22
  53343.677     1.014E-21
  53343.743     9.785E-22
  53343.809     8.834E-22
  53343.875     6.839E-22
  53343.942     4.975E-22
  53344.008     4.325E-22
  53344.074     3.964E-22
  53344.140     3.906E-22
  53344.206     3.278E-22
  53344.272     3.099E-22
  53344.338     3.494E-22
  53344.404     3.862E-22
  53344.470     4.735E-22
  53344.536     5.248E-22
  53344.603     4.561E-22
  53344.669     3.804E-22
  53344.735     3.557E-22
  53344.801     3.320E-22
  53344.867     3.067E-22
  53344.933     3.083E-22
  53344.999     3.734E-22
  53345.065     3.918E-22
  53345.131     4.110E-22
  53345.197     4.409E-22
  53345.264     4.222E-22
  53345.330     3.637E-22
  53345.396     3.066E-22
  53345.462     3.145E-22
  53345.528     3.655E-22
  53345.594     4.255E-22
  53345.660     5.152E-22
  53345.726     6.538E-22
  53345.792     6.559E-22
  53345.859     5.739E-22
  53345.925     4.908E-22
  53345.991     3.785E-22
  53346.057     2.479E-22
  53346.123     1.461E-22
  53346.189     1.449E-22
  53346.255     2.174E-22
  53346.321     3.272E-22
  53346.387     3.546E-22
  53346.453     3.733E-22
  53346.520     3.932E-22
  53346.586     3.405E-22
  53346.652     2.853E-22
  53346.718     3.024E-22
  53346.784     3.387E-22
  53346.850     3.368E-22
  53346.916     3.355E-22
  53346.982     4.380E-22
  53347.048     5.124E-22
  53347.115     6.051E-22
  53347.181     6.821E-22
  53347.247     6.579E-22
  53347.313     5.578E-22
  53347.379     4.774E-22
  53347.445     4.055E-22
  53347.511     3.709E-22
  53347.577     4.113E-22
  53347.643     4.602E-22
  53347.709     4.690E-22
  53347.776     5.135E-22
  53347.842     5.295E-22
  53347.908     5.244E-22
  53347.974     5.770E-22
  53348.040     5.597E-22
  53348.106     5.179E-22
  53348.172     5.208E-22
  53348.238     3.909E-22
  53348.304     3.598E-22
  53348.371     3.536E-22
  53348.437     3.213E-22
  53348.503     2.933E-22
  53348.569     2.578E-22
  53348.635     3.058E-22
  53348.701     3.175E-22
  53348.767     3.635E-22
  53348.833     3.437E-22
  53348.899     2.655E-22
  53348.966     2.387E-22
  53349.032     2.498E-22
  53349.098     3.206E-22
  53349.164     4.131E-22
  53349.230     5.378E-22
  53349.296     6.488E-22
  53349.362     6.967E-22
  53349.428     5.822E-22
  53349.495     4.435E-22
  53349.561     3.220E-22
  53349.627     2.106E-22
  53349.693     1.159E-22
  53349.759     9.414E-23
  53349.825     1.193E-22
  53349.891     9.955E-23
  53349.957     9.800E-23
  53350.023     7.864E-23
  53350.090     1.516E-23
  53350.156    -2.168E-24
  53350.222     7.928E-24
  53350.288     5.415E-23
  53350.354     4.220E-23
  53350.420     4.842E-23
  53350.486     7.412E-23
  53350.552     5.663E-23
  53350.618     7.462E-24
  53350.685    -6.312E-24
  53350.751     2.108E-23
  53350.817     9.289E-23
  53350.883     2.127E-22
  53350.949     2.889E-22
  53351.015     2.779E-22
  53351.081     2.449E-22
  53351.147     2.582E-22
  53351.214     2.379E-22
  53351.280     1.566E-22
  53351.346     3.756E-23
  53351.412    -1.688E-24
  53351.478     4.231E-23
  53351.544     1.422E-22
  53351.610     1.776E-22
  53351.676     2.440E-22
  53351.742     3.207E-22
  53351.809     3.675E-22
  53351.875     3.684E-22
  53351.941     3.488E-22
  53352.007     3.465E-22
  53352.073     3.272E-22
  53352.139     3.913E-22
  53352.205     3.560E-22
  53352.271     3.746E-22
  53352.338     3.840E-22
  53352.404     3.471E-22
  53352.470     3.061E-22
  53352.536     2.642E-22
  53352.602     2.436E-22
  53352.668     1.999E-22
  53352.734     1.993E-22
  53352.800     2.000E-22
  53352.867     1.778E-22
  53352.933     2.790E-22
  53352.999     2.928E-22
  53353.065     2.669E-22
  53353.131     2.343E-22
  53353.197     1.591E-22
  53353.263     1.602E-22
  53353.329     1.350E-22
  53353.396     1.074E-22
  53353.462     1.515E-22
  53353.528     2.147E-22
  53353.594     2.834E-22
  53353.660     4.096E-22
  53353.726     4.687E-22
  53353.792     4.164E-22
  53353.858     4.451E-22
  53353.925     3.311E-22
  53353.991     1.407E-22
  53354.057    -3.380E-23
  53354.123    -7.968E-23
  53354.189    -1.255E-22
  53354.255    -1.116E-22
  53354.321     1.313E-23
  53354.387     1.418E-22
  53354.454     2.600E-22
  53354.520     3.611E-22
  53354.586     3.614E-22
  53354.652     3.775E-22
  53354.718     3.767E-22
  53354.784     3.780E-22
  53354.850     3.357E-22
  53354.916     2.021E-22
  53354.983     1.327E-22
  53355.049     3.267E-23
  53355.115    -8.809E-23
  53355.181    -2.074E-22
  53355.247    -2.820E-22
  53355.313    -2.949E-22
  53355.379    -2.535E-22
  53355.446    -1.746E-22
  53355.512    -3.486E-23
  53355.578     1.793E-22
  53355.644     3.118E-22
  53355.710     2.757E-22
  53355.776     2.457E-22
  53355.842     2.430E-22
  53355.908     2.012E-22
  53355.975     2.173E-22
  53356.041     2.536E-22
  53356.107     2.830E-22
  53356.173     4.091E-22
  53356.239     4.609E-22
  53356.305     4.035E-22
  53356.371     3.348E-22
  53356.438     2.314E-22
  53356.504     1.114E-22
  53356.570     2.159E-23
  53356.636    -6.450E-23
  53356.702    -5.387E-23
  53356.768     4.432E-23
  53356.834     1.317E-22
  53356.900     1.587E-22
  53356.967     1.005E-22
  53357.033     7.814E-23
  53357.099    -1.774E-23
  53357.165    -6.497E-23
  53357.231    -4.396E-23
  53357.297    -2.435E-24
  53357.363     5.570E-23
  53357.430     1.098E-22
  53357.496     1.441E-22
  53357.562     1.167E-22
  53357.628     3.509E-23
  53357.694     6.145E-23
  53357.760     1.801E-22
  53357.826     2.457E-22
  53357.892     3.227E-22
  53357.959     3.361E-22
  53358.025     3.093E-22
  53358.091     2.675E-22
  53358.157     2.245E-22
  53358.223     1.761E-22
  53358.289     8.828E-23
  53358.355     5.045E-23
  53358.422     6.506E-23
  53358.488     3.542E-23
  53358.554     3.225E-23
  53358.620     3.061E-23
  53358.686     4.688E-23
  53358.752     2.799E-23
  53358.818    -1.561E-23
  53358.885    -2.231E-23
  53358.951    -3.047E-23
  53359.017    -6.525E-23
  53359.083     4.451E-23
  53359.149     1.530E-22
  53359.215     1.629E-22
  53359.281     9.297E-23
  53359.348     8.273E-23
  53359.414     6.166E-23
  53359.480    -2.446E-23
  53359.546    -2.976E-23
  53359.612     1.239E-23
  53359.678     3.068E-23
  53359.744     2.494E-23
  53359.811    -8.222E-23
  53359.877    -1.823E-22
  53359.943    -2.263E-22
  53360.009    -1.529E-22
  53360.075    -6.058E-24
  53360.141     1.685E-22
  53360.207     2.897E-22
  53360.274     3.583E-22
  53360.340     3.430E-22
  53360.406     3.341E-22
  53360.472     4.006E-22
  53360.538     3.108E-22
  53360.604     1.474E-22
  53360.670     5.707E-23
  53360.737     8.592E-23
  53360.803     1.598E-22
  53360.869     2.687E-22
  53360.935     2.957E-22
  53361.001     2.825E-22
  53361.067     2.786E-22
  53361.133     2.926E-22
  53361.200     3.098E-22
  53361.266     3.377E-22
  53361.332     3.391E-22
  53361.398     3.610E-22
  53361.464     3.282E-22
  53361.530     2.192E-22
  53361.596     1.542E-22
  53361.663     1.427E-22
  53361.729     1.237E-22
  53361.795     8.087E-23
  53361.861     7.510E-23
  53361.927     1.668E-22
  53361.993     2.951E-22
  53362.059     2.474E-22
  53362.126     2.309E-22
  53362.192     2.911E-22
  53362.258     3.188E-22
  53362.324     3.944E-22
  53362.390     4.798E-22
  53362.456     4.242E-22
  53362.523     3.773E-22
  53362.589     4.251E-22
  53362.655     3.910E-22
  53362.721     3.745E-22
  53362.787     4.391E-22
  53362.853     4.661E-22
  53362.919     3.467E-22
  53362.986     1.822E-22
  53363.052     2.807E-23
  53363.118     4.609E-23
  53363.184     1.190E-22
  53363.250     3.588E-23
  53363.316     2.986E-23
  53363.382     1.847E-22
  53363.449     2.354E-22
  53363.515     2.053E-22
  53363.581     2.007E-22
  53363.647     1.605E-22
  53363.713     1.050E-22
  53363.779     9.808E-23
  53363.846     1.571E-22
  53363.912     2.166E-22
  53363.978     2.011E-22
  53364.044     2.321E-22
  53364.110     2.365E-22
  53364.176     3.009E-22
  53364.242     4.369E-22
  53364.309     4.887E-22
  53364.375     4.312E-22
  53364.441     3.758E-22
  53364.507     3.577E-22
  53364.573     2.759E-22
  53364.639     2.285E-22
  53364.706     3.190E-22
  53364.772     3.549E-22
  53364.838     2.615E-22
  53364.904     2.603E-22
  53364.970     2.887E-22
  53365.036     3.846E-22
  53365.103     5.486E-22
  53365.169     6.851E-22
  53365.235     7.254E-22
  53365.301     7.473E-22
  53365.367     7.985E-22
  53365.433     8.373E-22
  53365.499     7.859E-22
  53365.566     6.391E-22
  53365.632     5.880E-22
  53365.698     5.398E-22
  53365.764     3.185E-22
  53365.830     2.000E-22
  53365.896     2.067E-22
  53365.963     2.826E-22
  53366.029     3.788E-22
  53366.095     4.422E-22
  53366.161     4.599E-22
  53366.227     4.767E-22
  53366.293     4.477E-22
  53366.360     5.784E-22
  53366.426     6.362E-22
  53366.492     6.005E-22
  53366.558     6.043E-22
  53366.624     5.913E-22
  53366.690     5.761E-22
  53366.757     5.558E-22
  53366.823     5.611E-22
  53366.889     6.326E-22
  53366.955     6.576E-22
  53367.021     7.325E-22
  53367.087     7.455E-22
  53367.153     7.293E-22
  53367.220     7.593E-22
  53367.286     7.790E-22
  53367.352     7.504E-22
  53367.418     7.611E-22
  53367.484     7.633E-22
  53367.550     6.790E-22
  53367.617     5.910E-22
  53367.683     5.851E-22
  53367.749     6.012E-22
  53367.815     6.294E-22
  53367.881     6.697E-22
  53367.947     6.832E-22
  53368.014     6.648E-22
  53368.080     6.916E-22
  53368.146     7.850E-22
  53368.212     8.416E-22
  53368.278     8.498E-22
  53368.344     8.571E-22
  53368.411     8.660E-22
  53368.477     7.338E-22
  53368.543     6.020E-22
  53368.609     5.255E-22
  53368.675     4.766E-22
  53368.741     4.204E-22
  53368.808     2.918E-22
  53368.874     3.578E-22
  53368.940     5.175E-22
  53369.006     5.748E-22
  53369.072     6.569E-22
  53369.138     7.495E-22
  53369.205     8.008E-22
  53369.271     7.787E-22
  53369.337     7.833E-22
  53369.403     7.822E-22
  53369.469     7.315E-22
  53369.535     6.934E-22
  53369.602     6.668E-22
  53369.668     6.671E-22
  53369.734     6.836E-22
  53369.800     6.404E-22
  53369.866     5.504E-22
  53369.932     4.986E-22
  53369.999     5.222E-22
  53370.065     6.336E-22
  53370.131     7.669E-22
  53370.197     8.339E-22
  53370.263     8.753E-22
  53370.329     9.666E-22
  53370.396     8.927E-22
  53370.462     8.189E-22
  53370.528     8.401E-22
  53370.594     9.255E-22
  53370.660     9.708E-22
  53370.727     9.869E-22
  53370.793     9.974E-22
  53370.859     1.010E-21
  53370.925     9.738E-22
  53370.991     9.169E-22
  53371.057     8.953E-22
  53371.124     9.786E-22
  53371.190     1.034E-21
  53371.256     1.128E-21
  53371.322     1.156E-21
  53371.388     1.204E-21
  53371.454     1.262E-21
  53371.521     1.289E-21
  53371.587     1.278E-21
  53371.653     1.249E-21
  53371.719     1.283E-21
  53371.785     1.409E-21
  53371.851     1.619E-21
  53371.918     1.738E-21
  53371.984     1.761E-21
  53372.050     1.748E-21
  53372.116     1.697E-21
  53372.182     1.558E-21
  53372.249     1.573E-21
  53372.315     1.640E-21
  53372.381     1.728E-21
  53372.447     1.806E-21
  53372.513     1.817E-21
  53372.579     1.788E-21
  53372.646     1.746E-21
  53372.712     1.743E-21
  53372.778     1.824E-21
  53372.844     1.976E-21
  53372.910     2.141E-21
  53372.977     2.320E-21
  53373.043     2.520E-21
  53373.109     2.596E-21
  53373.175     2.611E-21
  53373.241     2.627E-21
  53373.307     2.686E-21
  53373.374     2.790E-21
  53373.440     2.976E-21
  53373.506     3.194E-21
  53373.572     3.359E-21
  53373.638     3.582E-21
  53373.704     3.730E-21
  53373.771     3.812E-21
  53373.837     3.977E-21
  53373.903     4.081E-21
  53373.969     4.162E-21
  53374.035     4.211E-21
  53374.102     4.261E-21
  53374.168     4.347E-21
  53374.234     4.556E-21
  53374.300     4.766E-21
  53374.366     4.990E-21
  53374.432     5.217E-21
  53374.499     5.397E-21
  53374.565     5.596E-21
  53374.631     5.880E-21
  53374.697     6.108E-21
  53374.763     6.320E-21
  53374.830     6.614E-21
  53374.896     6.893E-21
  53374.962     7.080E-21
  53375.028     7.261E-21
  53375.094     7.489E-21
  53375.160     7.596E-21
  53375.227     7.656E-21
  53375.293     7.725E-21
  53375.359     7.801E-21
  53375.425     7.909E-21
  53375.491     8.091E-21
  53375.558     8.251E-21
  53375.624     8.389E-21
  53375.690     8.502E-21
  53375.756     8.518E-21
  53375.822     8.442E-21
  53375.889     8.391E-21
  53375.955     8.294E-21
  53376.021     8.147E-21
  53376.087     7.952E-21
  53376.153     7.874E-21
  53376.219     7.843E-21
  53376.286     7.821E-21
  53376.352     7.694E-21
  53376.418     7.438E-21
  53376.484     7.184E-21
  53376.550     6.911E-21
  53376.617     6.785E-21
  53376.683     6.608E-21
  53376.749     6.330E-21
  53376.815     6.194E-21
  53376.881     5.842E-21
  53376.948     5.512E-21
  53377.014     5.291E-21
  53377.080     5.097E-21
  53377.146     4.943E-21
  53377.212     4.754E-21
  53377.279     4.445E-21
  53377.345     4.084E-21
  53377.411     3.804E-21
  53377.477     3.678E-21
  53377.543     3.667E-21
  53377.609     3.644E-21
  53377.676     3.493E-21
  53377.742     3.412E-21
  53377.808     3.343E-21
  53377.874     3.263E-21
  53377.940     3.284E-21
  53378.007     3.173E-21
  53378.073     2.962E-21
  53378.139     2.679E-21
  53378.205     2.466E-21
  53378.271     2.370E-21
  53378.338     2.326E-21
  53378.404     2.261E-21
  53378.470     2.253E-21
  53378.536     2.287E-21
  53378.602     2.214E-21
  53378.669     2.068E-21
  53378.735     1.983E-21
  53378.801     1.950E-21
  53378.867     1.969E-21
  53378.933     1.959E-21
  53379.000     1.968E-21
  53379.066     1.974E-21
  53379.132     1.831E-21
  53379.198     1.646E-21
  53379.264     1.443E-21
  53379.331     1.448E-21
  53379.397     1.528E-21
  53379.463     1.510E-21
  53379.529     1.451E-21
  53379.595     1.373E-21
  53379.661     1.379E-21
  53379.728     1.341E-21
  53379.794     1.307E-21
  53379.860     1.191E-21
  53379.926     1.160E-21
  53379.992     1.186E-21
  53380.059     1.185E-21
  53380.125     1.162E-21
  53380.191     1.100E-21
  53380.257     1.041E-21
  53380.323     1.048E-21
  53380.390     1.027E-21
  53380.456     9.958E-22
  53380.522     9.737E-22
  53380.588     9.789E-22
  53380.654     1.071E-21
  53380.721     1.201E-21
  53380.787     1.256E-21
  53380.853     1.242E-21
  53380.919     1.261E-21
  53380.985     1.099E-21
  53381.052     9.383E-22
  53381.118     8.748E-22
  53381.184     8.489E-22
  53381.250     8.428E-22
  53381.316     8.725E-22
  53381.383     8.529E-22
  53381.449     7.165E-22
  53381.515     6.655E-22
  53381.581     6.715E-22
  53381.647     6.689E-22
  53381.714     6.397E-22
  53381.780     6.327E-22
  53381.846     6.444E-22
  53381.912     6.708E-22
  53381.978     6.301E-22
  53382.045     6.341E-22
  53382.111     7.006E-22
  53382.177     8.017E-22
  53382.243     9.121E-22
  53382.310     9.130E-22
  53382.376     9.188E-22
  53382.442     8.701E-22
  53382.508     7.777E-22
  53382.574     7.528E-22
  53382.641     7.736E-22
  53382.707     7.345E-22
  53382.773     7.134E-22
  53382.839     7.849E-22
  53382.905     8.109E-22
  53382.972     7.271E-22
  53383.038     6.603E-22
  53383.104     5.565E-22
  53383.170     5.296E-22
  53383.236     5.120E-22
  53383.303     4.467E-22
  53383.369     3.156E-22
  53383.435     2.017E-22
  53383.501     2.013E-22
  53383.567     2.896E-22
  53383.634     4.726E-22
  53383.700     6.252E-22
  53383.766     7.534E-22
  53383.832     7.512E-22
  53383.898     6.818E-22
  53383.965     6.646E-22
  53384.031     6.539E-22
  53384.097     6.699E-22
  53384.163     7.359E-22
  53384.230     8.017E-22
  53384.296     8.794E-22
  53384.362     8.398E-22
  53384.428     7.894E-22
  53384.494     7.040E-22
  53384.561     6.001E-22
  53384.627     5.224E-22
  53384.693     4.368E-22
  53384.759     4.173E-22
  53384.825     5.577E-22
  53384.892     7.015E-22
  53384.958     7.310E-22
  53385.024     7.298E-22
  53385.090     6.919E-22
  53385.156     5.907E-22
  53385.223     5.453E-22
  53385.289     5.110E-22
  53385.355     5.402E-22
  53385.421     5.662E-22
  53385.488     5.822E-22
  53385.554     5.496E-22
  53385.620     6.001E-22
  53385.686     5.793E-22
  53385.752     5.150E-22
  53385.819     5.009E-22
  53385.885     4.650E-22
  53385.951     4.376E-22
  53386.017     4.194E-22
  53386.083     3.627E-22
  53386.150     2.652E-22
  53386.216     2.874E-22
  53386.282     3.973E-22
  53386.348     6.043E-22
  53386.415     7.402E-22
  53386.481     8.220E-22
  53386.547     8.671E-22
  53386.613     8.815E-22
  53386.679     8.233E-22
  53386.746     7.919E-22
  53386.812     8.083E-22
  53386.878     7.687E-22
  53386.944     7.228E-22
  53387.010     6.703E-22
  53387.077     5.831E-22
  53387.143     4.931E-22
  53387.209     3.209E-22
  53387.275     2.717E-22
  53387.342     2.997E-22
  53387.408     4.147E-22
  53387.474     4.477E-22
  53387.540     4.670E-22
  53387.606     4.638E-22
  53387.673     5.177E-22
  53387.739     5.288E-22
  53387.805     4.855E-22
  53387.871     4.860E-22
  53387.938     5.521E-22
  53388.004     5.804E-22
  53388.070     6.153E-22
  53388.136     5.557E-22
  53388.202     5.067E-22
  53388.269     4.602E-22
  53388.335     4.334E-22
  53388.401     5.279E-22
  53388.467     5.824E-22
  53388.534     6.466E-22
  53388.600     6.599E-22
  53388.666     6.532E-22
  53388.732     6.335E-22
  53388.798     5.589E-22
  53388.865     4.479E-22
  53388.931     3.367E-22
  53388.997     2.996E-22
  53389.063     3.104E-22
  53389.130     3.852E-22
  53389.196     5.331E-22
  53389.262     6.068E-22
  53389.328     5.130E-22
  53389.394     3.720E-22
  53389.461     2.859E-22
  53389.527     2.742E-22
  53389.593     3.278E-22
  53389.659     4.274E-22
  53389.726     4.240E-22
  53389.792     4.690E-22
  53389.858     5.170E-22
  53389.924     4.807E-22
  53389.990     5.744E-22
  53390.057     7.061E-22
  53390.123     6.969E-22
  53390.189     6.232E-22
  53390.255     5.322E-22
  53390.322     4.597E-22
  53390.388     5.166E-22
  53390.454     6.387E-22
  53390.520     7.231E-22
  53390.586     8.080E-22
  53390.653     8.258E-22
  53390.719     8.153E-22
  53390.785     7.793E-22
  53390.851     6.486E-22
  53390.918     5.554E-22
  53390.984     5.475E-22
  53391.050     5.378E-22
  53391.116     5.261E-22
  53391.183     5.515E-22
  53391.249     5.587E-22
  53391.315     4.737E-22
  53391.381     3.234E-22
  53391.447     2.183E-22
  53391.514     2.058E-22
  53391.580     2.309E-22
  53391.646     3.213E-22
  53391.712     4.605E-22
  53391.779     5.833E-22
  53391.845     6.525E-22
  53391.911     6.665E-22
  53391.977     6.020E-22
  53392.044     6.551E-22
  53392.110     7.287E-22
  53392.176     7.389E-22
  53392.242     6.342E-22
  53392.308     4.901E-22
  53392.375     4.419E-22
  53392.441     4.253E-22
  53392.507     3.634E-22
  53392.573     3.472E-22
  53392.640     2.710E-22
  53392.706     2.380E-22
  53392.772     2.443E-22
  53392.838     2.798E-22
  53392.905     3.709E-22
  53392.971     5.515E-22
  53393.037     6.804E-22
  53393.103     7.597E-22
  53393.169     7.697E-22
  53393.236     7.098E-22
  53393.302     6.983E-22
  53393.368     7.009E-22
  53393.434     7.250E-22
  53393.501     7.499E-22
  53393.567     7.044E-22
  53393.633     5.854E-22
  53393.699     4.732E-22
  53393.766     5.229E-22
  53393.832     6.539E-22
  53393.898     7.225E-22
  53393.964     8.127E-22
  53394.031     8.165E-22
  53394.097     7.394E-22
  53394.163     6.519E-22
  53394.229     6.240E-22
  53394.296     5.717E-22
  53394.362     5.836E-22
  53394.428     6.677E-22
  53394.494     7.981E-22
  53394.560     8.922E-22
  53394.627     9.795E-22
  53394.693     1.035E-21
  53394.759     9.908E-22
  53394.825     8.885E-22
  53394.892     8.090E-22
  53394.958     8.020E-22
  53395.024     8.268E-22
  53395.090     9.393E-22
  53395.157     1.052E-21
  53395.223     1.125E-21
  53395.289     1.057E-21
  53395.355     9.262E-22
  53395.422     7.972E-22
  53395.488     7.188E-22
  53395.554     6.419E-22
  53395.620     5.944E-22
  53395.687     5.548E-22
  53395.753     5.745E-22
  53395.819     6.541E-22
  53395.885     7.144E-22
  53395.951     7.812E-22
  53396.018     7.793E-22
  53396.084     7.649E-22
  53396.150     7.584E-22
  53396.216     8.290E-22
  53396.283     9.187E-22
  53396.349     9.824E-22
  53396.415     1.035E-21
  53396.481     1.053E-21
  53396.548     1.005E-21
  53396.614     9.554E-22
  53396.680     9.474E-22
  53396.746     9.641E-22
  53396.813     1.054E-21
  53396.879     1.087E-21
  53396.945     1.045E-21
  53397.011     9.174E-22
  53397.078     8.889E-22
  53397.144     9.577E-22
  53397.210     1.045E-21
  53397.276     9.757E-22
  53397.343     9.801E-22
  53397.409     1.093E-21
  53397.475     1.111E-21
  53397.541     1.100E-21
  53397.608     1.063E-21
  53397.674     9.986E-22
  53397.740     8.845E-22
  53397.806     7.795E-22
  53397.873     8.006E-22
  53397.939     7.248E-22
  53398.005     7.992E-22
  53398.071     8.648E-22
  53398.138     9.497E-22
  53398.204     1.027E-21
  53398.270     1.107E-21
  53398.336     1.141E-21
  53398.403     1.106E-21
  53398.469     1.145E-21
  53398.535     1.151E-21
  53398.601     1.118E-21
  53398.668     1.053E-21
  53398.734     9.532E-22
  53398.800     9.448E-22
  53398.866     1.094E-21
  53398.933     1.268E-21
  53398.999     1.381E-21
  53399.065     1.392E-21
  53399.131     1.281E-21
  53399.198     1.239E-21
  53399.264     1.304E-21
  53399.330     1.333E-21
  53399.396     1.444E-21
  53399.463     1.554E-21
  53399.529     1.623E-21
  53399.595     1.753E-21
  53399.661     1.771E-21
  53399.728     1.770E-21
  53399.794     1.772E-21
  53399.860     1.777E-21
  53399.926     1.845E-21
  53399.993     1.899E-21
  53400.059     1.918E-21
  53400.125     1.896E-21
  53400.191     1.824E-21
  53400.258     1.788E-21
  53400.324     1.795E-21
  53400.390     1.794E-21
  53400.456     1.844E-21
  53400.523     1.914E-21
  53400.589     2.043E-21
  53400.655     2.130E-21
  53400.721     2.087E-21
  53400.788     2.011E-21
  53400.854     1.976E-21
  53400.920     2.023E-21
  53400.986     2.145E-21
  53401.053     2.258E-21
  53401.119     2.387E-21
  53401.185     2.402E-21
  53401.251     2.340E-21
  53401.318     2.288E-21
  53401.384     2.263E-21
  53401.450     2.246E-21
  53401.516     2.303E-21
  53401.583     2.458E-21
  53401.649     2.693E-21
  53401.715     2.876E-21
  53401.781     2.905E-21
  53401.848     2.992E-21
  53401.914     3.116E-21
  53401.980     3.356E-21
  53402.047     3.486E-21
  53402.113     3.555E-21
  53402.179     3.668E-21
  53402.245     3.704E-21
  53402.312     3.796E-21
  53402.378     3.898E-21
  53402.444     4.027E-21
  53402.510     4.218E-21
  53402.577     4.365E-21
  53402.643     4.562E-21
  53402.709     4.735E-21
  53402.775     4.910E-21
  53402.842     5.101E-21
  53402.908     5.294E-21
  53402.974     5.448E-21
  53403.040     5.511E-21
  53403.107     5.571E-21
  53403.173     5.726E-21
  53403.239     6.194E-21
  53403.305     6.667E-21
  53403.372     7.055E-21
  53403.438     7.309E-21
  53403.504     7.511E-21
  53403.571     7.677E-21
  53403.637     7.964E-21
  53403.703     8.311E-21
  53403.769     8.711E-21
  53403.836     9.212E-21
  53403.902     9.662E-21
  53403.968     1.014E-20
  53404.034     1.055E-20
  53404.101     1.117E-20
  53404.167     1.165E-20
  53404.233     1.218E-20
  53404.299     1.274E-20
  53404.366     1.369E-20
  53404.432     1.406E-20
  53404.498     1.447E-20
  53404.564     1.494E-20
  53404.631     1.548E-20
  53404.697     1.603E-20
  53404.763     1.653E-20
  53404.830     1.695E-20
  53404.896     1.748E-20
  53404.962     1.796E-20
  53405.028     1.851E-20
  53405.095     1.897E-20
  53405.161     1.923E-20
  53405.227     1.946E-20
  53405.293     1.984E-20
  53405.360     2.018E-20
  53405.426     2.050E-20
  53405.492     2.071E-20
  53405.558     2.080E-20
  53405.625     2.079E-20
  53405.691     2.066E-20
  53405.757     2.059E-20
  53405.824     2.046E-20
  53405.890     2.036E-20
  53405.956     2.021E-20
  53406.022     1.986E-20
  53406.089     1.938E-20
  53406.155     1.895E-20
  53406.221     1.860E-20
  53406.287     1.822E-20
  53406.354     1.772E-20
  53406.420     1.718E-20
  53406.486     1.655E-20
  53406.553     1.604E-20
  53406.619     1.549E-20
  53406.685     1.491E-20
  53406.751     1.432E-20
  53406.818     1.371E-20
  53406.884     1.326E-20
  53406.950     1.276E-20
  53407.016     1.217E-20
  53407.083     1.157E-20
  53407.149     1.097E-20
  53407.215     1.042E-20
  53407.282     9.893E-21
  53407.348     9.242E-21
  53407.414     8.857E-21
  53407.480     8.521E-21
  53407.547     8.190E-21
  53407.613     7.812E-21
  53407.679     7.504E-21
  53407.745     7.174E-21
  53407.812     6.912E-21
  53407.878     6.726E-21
  53407.944     6.588E-21
  53408.011     6.399E-21
  53408.077     6.143E-21
  53408.143     5.730E-21
  53408.209     5.413E-21
  53408.276     5.090E-21
  53408.342     4.800E-21
  53408.408     4.675E-21
  53408.474     4.515E-21
  53408.541     4.295E-21
  53408.607     4.103E-21
  53408.673     3.928E-21
  53408.740     3.822E-21
  53408.806     3.786E-21
  53408.872     3.740E-21
  53408.938     3.766E-21
  53409.005     3.768E-21
  53409.071     3.649E-21
  53409.137     3.534E-21
  53409.204     3.405E-21
  53409.270     3.327E-21
  53409.336     3.276E-21
  53409.402     3.322E-21
  53409.469     3.334E-21
  53409.535     3.241E-21
  53409.601     3.094E-21
  53409.667     2.960E-21
  53409.734     2.902E-21
  53409.800     2.872E-21
  53409.866     2.853E-21
  53409.933     2.693E-21
  53409.999     2.489E-21
  53410.065     2.341E-21
  53410.131     2.349E-21
  53410.198     2.380E-21
  53410.264     2.442E-21
  53410.330     2.399E-21
  53410.397     2.387E-21
  53410.463     2.418E-21
  53410.529     2.429E-21
  53410.595     2.366E-21
  53410.662     2.248E-21
  53410.728     2.100E-21
  53410.794     2.006E-21
  53410.861     1.881E-21
  53410.927     1.758E-21
  53410.993     1.697E-21
  53411.059     1.780E-21
  53411.126     1.790E-21
  53411.192     1.831E-21
  53411.258     1.935E-21
  53411.325     1.874E-21
  53411.391     1.782E-21
  53411.457     1.771E-21
  53411.523     1.790E-21
  53411.590     1.829E-21
  53411.656     1.920E-21
  53411.722     1.959E-21
  53411.789     1.898E-21
  53411.855     1.849E-21
  53411.921     1.829E-21
  53411.987     1.810E-21
  53412.054     1.718E-21
  53412.120     1.596E-21
  53412.186     1.514E-21
  53412.253     1.464E-21
  53412.319     1.454E-21
  53412.385     1.480E-21
  53412.451     1.591E-21
  53412.518     1.612E-21
  53412.584     1.619E-21
  53412.650     1.635E-21
  53412.717     1.571E-21
  53412.783     1.482E-21
  53412.849     1.437E-21
  53412.915     1.472E-21
  53412.982     1.485E-21
  53413.048     1.516E-21
  53413.114     1.457E-21
  53413.181     1.407E-21
  53413.247     1.359E-21
  53413.313     1.257E-21
  53413.379     1.206E-21
  53413.446     1.254E-21
  53413.512     1.379E-21
  53413.578     1.496E-21
  53413.645     1.527E-21
  53413.711     1.467E-21
  53413.777     1.346E-21
  53413.843     1.278E-21
  53413.910     1.259E-21
  53413.976     1.268E-21
  53414.042     1.269E-21
  53414.109     1.339E-21
  53414.175     1.313E-21
  53414.241     1.275E-21
  53414.308     1.294E-21
  53414.374     1.393E-21
  53414.440     1.423E-21
  53414.506     1.351E-21
  53414.573     1.268E-21
  53414.639     1.180E-21
  53414.705     1.239E-21
  53414.772     1.264E-21
  53414.838     1.201E-21
  53414.904     1.119E-21
  53414.970     1.140E-21
  53415.037     1.212E-21
  53415.103     1.327E-21
  53415.169     1.381E-21
  53415.236     1.471E-21
  53415.302     1.549E-21
  53415.368     1.516E-21
  53415.435     1.444E-21
  53415.501     1.436E-21
  53415.567     1.357E-21
  53415.633     1.242E-21
  53415.700     1.238E-21
  53415.766     1.219E-21
  53415.832     1.225E-21
  53415.899     1.312E-21
  53415.965     1.389E-21
  53416.031     1.451E-21
  53416.097     1.402E-21
  53416.164     1.422E-21
  53416.230     1.436E-21
  53416.296     1.359E-21
  53416.363     1.314E-21
  53416.429     1.267E-21
  53416.495     1.204E-21
  53416.562     1.202E-21
  53416.628     1.220E-21
  53416.694     1.282E-21
  53416.760     1.373E-21
  53416.827     1.474E-21
  53416.893     1.414E-21
  53416.959     1.303E-21
  53417.026     1.313E-21
  53417.092     1.316E-21
  53417.158     1.314E-21
  53417.225     1.472E-21
  53417.291     1.604E-21
  53417.357     1.588E-21
  53417.423     1.359E-21
  53417.490     1.119E-21
  53417.556     1.028E-21
  53417.622     1.064E-21
  53417.689     1.139E-21
  53417.755     1.226E-21
  53417.821     1.321E-21
  53417.888     1.387E-21
  53417.954     1.487E-21
  53418.020     1.439E-21
  53418.086     1.348E-21
  53418.153     1.339E-21
  53418.219     1.293E-21
  53418.285     1.275E-21
  53418.352     1.289E-21
  53418.418     1.372E-21
  53418.484     1.362E-21
  53418.551     1.252E-21
  53418.617     1.188E-21
  53418.683     1.256E-21
  53418.750     1.277E-21
  53418.816     1.247E-21
  53418.882     1.204E-21
  53418.948     1.299E-21
  53419.015     1.426E-21
  53419.081     1.425E-21
  53419.147     1.424E-21
  53419.214     1.336E-21
  53419.280     1.352E-21
  53419.346     1.376E-21
  53419.413     1.458E-21
  53419.479     1.587E-21
  53419.545     1.638E-21
  53419.612     1.647E-21
  53419.678     1.588E-21
  53419.744     1.573E-21
  53419.810     1.597E-21
  53419.877     1.607E-21
  53419.943     1.503E-21
  53420.009     1.429E-21
  53420.076     1.508E-21
  53420.142     1.509E-21
  53420.208     1.567E-21
  53420.275     1.544E-21
  53420.341     1.429E-21
  53420.407     1.397E-21
  53420.474     1.349E-21
  53420.540     1.353E-21
  53420.606     1.537E-21
  53420.672     1.764E-21
  53420.739     1.876E-21
  53420.805     1.859E-21
  53420.871     1.781E-21
  53420.938     1.667E-21
  53421.004     1.609E-21
  53421.070     1.534E-21
  53421.137     1.526E-21
  53421.203     1.555E-21
  53421.269     1.545E-21
  53421.336     1.565E-21
  53421.402     1.580E-21
  53421.468     1.574E-21
  53421.534     1.590E-21
  53421.601     1.568E-21
  53421.667     1.581E-21
  53421.733     1.656E-21
  53421.800     1.740E-21
  53421.866     1.783E-21
  53421.932     1.720E-21
  53421.999     1.695E-21
  53422.065     1.754E-21
  53422.131     1.846E-21
  53422.198     1.941E-21
  53422.264     2.008E-21
  53422.330     1.989E-21
  53422.397     1.986E-21
  53422.463     1.993E-21
  53422.529     2.040E-21
  53422.596     2.141E-21
  53422.662     2.281E-21
  53422.728     2.274E-21
  53422.794     2.234E-21
  53422.861     2.231E-21
  53422.927     2.205E-21
  53422.993     2.190E-21
  53423.060     2.100E-21
  53423.126     1.992E-21
  53423.192     2.032E-21
  53423.259     2.112E-21
  53423.325     2.246E-21
  53423.391     2.307E-21
  53423.458     2.319E-21
  53423.524     2.267E-21
  53423.590     2.173E-21
  53423.657     2.118E-21
  53423.723     2.133E-21
  53423.789     2.268E-21
  53423.856     2.355E-21
  53423.922     2.401E-21
  53423.988     2.454E-21
  53424.054     2.454E-21
  53424.121     2.430E-21
  53424.187     2.509E-21
  53424.253     2.584E-21
  53424.320     2.575E-21
  53424.386     2.588E-21
  53424.452     2.610E-21
  53424.519     2.642E-21
  53424.585     2.771E-21
  53424.651     3.093E-21
  53424.718     3.338E-21
  53424.784     3.447E-21
  53424.850     3.550E-21
  53424.917     3.568E-21
  53424.983     3.561E-21
  53425.049     3.545E-21
  53425.116     3.584E-21
  53425.182     3.556E-21
  53425.248     3.579E-21
  53425.315     3.704E-21
  53425.381     3.830E-21
  53425.447     4.085E-21
  53425.514     4.237E-21
  53425.580     4.264E-21
  53425.646     4.299E-21
  53425.713     4.297E-21
  53425.779     4.370E-21
  53425.845     4.421E-21
  53425.912     4.423E-21
  53425.978     4.561E-21
  53426.044     4.814E-21
  53426.110     4.992E-21
  53426.177     5.160E-21
  53426.243     5.343E-21
  53426.309     5.488E-21
  53426.376     5.555E-21
  53426.442     5.596E-21
  53426.508     6.020E-21
  53426.575     6.218E-21
  53426.641     6.484E-21
  53426.707     6.775E-21
  53426.774     6.989E-21
  53426.840     7.199E-21
  53426.906     7.404E-21
  53426.973     7.573E-21
  53427.039     7.787E-21
  53427.105     8.106E-21
  53427.172     8.575E-21
  53427.238     9.029E-21
  53427.304     9.415E-21
  53427.371     9.640E-21
  53427.437     9.880E-21
  53427.503     1.018E-20
  53427.570     1.048E-20
  53427.636     1.077E-20
  53427.702     1.115E-20
  53427.769     1.162E-20
  53427.835     1.218E-20
  53427.901     1.279E-20
  53427.968     1.343E-20
  53428.034     1.428E-20
  53428.100     1.495E-20
  53428.167     1.556E-20
  53428.233     1.612E-20
  53428.299     1.668E-20
  53428.366     1.743E-20
  53428.432     1.823E-20
  53428.498     1.909E-20
  53428.565     2.001E-20
  53428.631     2.087E-20
  53428.697     2.217E-20
  53428.764     2.323E-20
  53428.830     2.448E-20
  53428.896     2.569E-20
  53428.963     2.670E-20
  53429.029     2.765E-20
  53429.095     2.874E-20
  53429.162     3.014E-20
  53429.228     3.126E-20
  53429.294     3.258E-20
  53429.361     3.395E-20
  53429.427     3.500E-20
  53429.493     3.596E-20
  53429.560     3.675E-20
  53429.626     3.745E-20
  53429.692     3.822E-20
  53429.759     3.876E-20
  53429.825     3.941E-20
  53429.891     3.978E-20
  53429.958     4.006E-20
  53430.024     4.015E-20
  53430.090     4.012E-20
  53430.157     4.009E-20
  53430.223     3.974E-20
  53430.289     3.936E-20
  53430.356     3.895E-20
  53430.422     3.836E-20
  53430.488     3.776E-20
  53430.555     3.709E-20
  53430.621     3.618E-20
  53430.687     3.534E-20
  53430.754     3.443E-20
  53430.820     3.334E-20
  53430.886     3.210E-20
  53430.953     3.085E-20
  53431.019     2.950E-20
  53431.085     2.828E-20
  53431.152     2.714E-20
  53431.218     2.609E-20
  53431.284     2.508E-20
  53431.351     2.405E-20
  53431.417     2.300E-20
  53431.483     2.244E-20
  53431.550     2.151E-20
  53431.616     2.044E-20
  53431.682     1.942E-20
  53431.749     1.859E-20
  53431.815     1.786E-20
  53431.881     1.722E-20
  53431.948     1.656E-20
  53432.014     1.592E-20
  53432.080     1.523E-20
  53432.147     1.462E-20
  53432.213     1.433E-20
  53432.279     1.385E-20
  53432.346     1.337E-20
  53432.412     1.277E-20
  53432.479     1.229E-20
  53432.545     1.194E-20
  53432.611     1.156E-20
  53432.678     1.115E-20
  53432.744     1.071E-20
  53432.810     1.021E-20
  53432.877     9.664E-21
  53432.943     9.444E-21
  53433.009     9.175E-21
  53433.076     8.904E-21
  53433.142     8.655E-21
  53433.208     8.374E-21
  53433.275     8.019E-21
  53433.341     7.657E-21
  53433.407     7.314E-21
  53433.474     7.106E-21
  53433.540     7.055E-21
  53433.606     7.051E-21
  53433.673     7.003E-21
  53433.739     6.891E-21
  53433.805     6.726E-21
  53433.872     6.510E-21
  53433.938     6.354E-21
  53434.004     6.152E-21
  53434.071     5.793E-21
  53434.137     5.590E-21
  53434.203     5.522E-21
  53434.270     5.402E-21
  53434.336     5.322E-21
  53434.403     5.262E-21
  53434.469     5.191E-21
  53434.535     5.052E-21
  53434.602     4.913E-21
  53434.668     4.786E-21
  53434.734     4.733E-21
  53434.801     4.705E-21
  53434.867     4.626E-21
  53434.933     4.500E-21
  53435.000     4.329E-21
  53435.066     4.185E-21
  53435.132     4.129E-21
  53435.199     4.173E-21
  53435.265     4.252E-21
  53435.331     4.314E-21
  53435.398     4.340E-21
  53435.464     4.233E-21
  53435.530     4.014E-21
  53435.597     3.840E-21
  53435.663     3.778E-21
  53435.730     3.716E-21
  53435.796     3.726E-21
  53435.862     3.812E-21
  53435.929     3.909E-21
  53435.995     3.981E-21
  53436.061     3.969E-21
  53436.128     3.932E-21
  53436.194     3.893E-21
  53436.260     3.736E-21
  53436.327     3.584E-21
  53436.393     3.523E-21
  53436.459     3.546E-21
  53436.526     3.597E-21
  53436.592     3.575E-21
  53436.658     3.472E-21
  53436.725     3.450E-21
  53436.791     3.399E-21
  53436.858     3.301E-21
  53436.924     3.341E-21
  53436.990     3.384E-21
  53437.057     3.398E-21
  53437.123     3.357E-21
  53437.189     3.285E-21
  53437.256     3.205E-21
  53437.322     3.185E-21
  53437.388     3.220E-21
  53437.455     3.232E-21
  53437.521     3.220E-21
  53437.587     3.231E-21
  53437.654     3.219E-21
  53437.720     3.272E-21
  53437.787     3.281E-21
  53437.853     3.142E-21
  53437.919     3.014E-21
  53437.986     3.055E-21
  53438.052     3.100E-21
  53438.118     3.074E-21
  53438.185     3.053E-21
  53438.251     2.964E-21
  53438.317     2.936E-21
  53438.384     2.829E-21
  53438.450     2.795E-21
  53438.516     2.873E-21
  53438.583     2.981E-21
  53438.649     3.078E-21
  53438.716     3.204E-21
  53438.782     3.219E-21
  53438.848     3.107E-21
  53438.915     2.959E-21
  53438.981     2.890E-21
  53439.047     2.855E-21
  53439.114     2.817E-21
  53439.180     2.934E-21
  53439.246     2.989E-21
  53439.313     3.043E-21
  53439.379     3.096E-21
  53439.445     3.073E-21
  53439.512     2.992E-21
  53439.578     2.904E-21
  53439.645     2.895E-21
  53439.711     2.843E-21
  53439.777     2.868E-21
  53439.844     2.866E-21
  53439.910     3.000E-21
  53439.976     3.230E-21
  53440.043     3.348E-21
  53440.109     3.362E-21
  53440.175     3.388E-21
  53440.242     3.388E-21
  53440.308     3.442E-21
  53440.375     3.443E-21
  53440.441     3.329E-21
  53440.507     3.237E-21
  53440.574     3.200E-21
  53440.640     3.117E-21
  53440.706     3.100E-21
  53440.773     3.040E-21
  53440.839     3.006E-21
  53440.905     3.008E-21
  53440.972     3.088E-21
  53441.038     3.191E-21
  53441.105     3.246E-21
  53441.171     3.321E-21
  53441.237     3.345E-21
  53441.304     3.309E-21
  53441.370     3.327E-21
  53441.436     3.392E-21
  53441.503     3.470E-21
  53441.569     3.468E-21
  53441.636     3.420E-21
  53441.702     3.467E-21
  53441.768     3.503E-21
  53441.835     3.596E-21
  53441.901     3.703E-21
  53441.967     3.688E-21
  53442.034     3.721E-21
  53442.100     3.742E-21
  53442.166     3.747E-21
  53442.233     3.872E-21
  53442.299     3.870E-21
  53442.366     3.833E-21
  53442.432     3.846E-21
  53442.498     3.910E-21
  53442.565     4.005E-21
  53442.631     3.979E-21
  53442.697     3.914E-21
  53442.764     3.936E-21
  53442.830     3.907E-21
  53442.897     3.878E-21
  53442.963     3.909E-21
  53443.029     4.090E-21
  53443.096     4.276E-21
  53443.162     4.440E-21
  53443.228     4.453E-21
  53443.295     4.336E-21
  53443.361     4.268E-21
  53443.428     4.349E-21
  53443.494     4.432E-21
  53443.560     4.531E-21
  53443.627     4.646E-21
  53443.693     4.723E-21
  53443.759     4.835E-21
  53443.826     4.884E-21
  53443.892     4.959E-21
  53443.959     4.947E-21
  53444.025     4.956E-21
  53444.091     4.941E-21
  53444.158     4.866E-21
  53444.224     4.910E-21
  53444.290     5.004E-21
  53444.357     5.145E-21
  53444.423     5.352E-21
  53444.490     5.562E-21
  53444.556     5.750E-21
  53444.622     6.067E-21
  53444.689     6.233E-21
  53444.755     6.270E-21
  53444.821     6.243E-21
  53444.888     6.185E-21
  53444.954     6.228E-21
  53445.021     6.378E-21
  53445.087     6.478E-21
  53445.153     6.609E-21
  53445.220     6.839E-21
  53445.286     7.016E-21
  53445.352     7.187E-21
  53445.419     7.449E-21
  53445.485     7.674E-21
  53445.552     7.876E-21
  53445.618     8.106E-21
  53445.684     8.319E-21
  53445.751     8.559E-21
  53445.817     8.783E-21
  53445.883     8.998E-21
  53445.950     9.168E-21
  53446.016     9.466E-21
  53446.083     9.925E-21
  53446.149     1.044E-20
  53446.215     1.081E-20
  53446.282     1.127E-20
  53446.348     1.170E-20
  53446.414     1.202E-20
  53446.481     1.235E-20
  53446.547     1.273E-20
  53446.614     1.361E-20
  53446.680     1.420E-20
  53446.746     1.469E-20
  53446.813     1.524E-20
  53446.879     1.577E-20
  53446.946     1.617E-20
  53447.012     1.661E-20
  53447.078     1.712E-20
  53447.145     1.775E-20
  53447.211     1.854E-20
  53447.277     1.927E-20
  53447.344     2.004E-20
  53447.410     2.086E-20
  53447.477     2.161E-20
  53447.543     2.255E-20
  53447.609     2.339E-20
  53447.676     2.434E-20
  53447.742     2.553E-20
  53447.809     2.702E-20
  53447.875     2.846E-20
  53447.941     2.983E-20
  53448.008     3.172E-20
  53448.074     3.293E-20
  53448.140     3.417E-20
  53448.207     3.532E-20
  53448.273     3.661E-20
  53448.340     3.835E-20
  53448.406     4.026E-20
  53448.472     4.227E-20
  53448.539     4.389E-20
  53448.605     4.544E-20
  53448.672     4.714E-20
  53448.738     4.875E-20
  53448.804     5.043E-20
  53448.871     5.234E-20
  53448.937     5.417E-20
  53449.003     5.567E-20
  53449.070     5.713E-20
  53449.136     5.872E-20
  53449.203     6.021E-20
  53449.269     6.099E-20
  53449.335     6.127E-20
  53449.402     6.136E-20
  53449.468     6.149E-20
  53449.535     6.150E-20
  53449.601     6.131E-20
  53449.667     6.113E-20
  53449.734     6.079E-20
  53449.800     6.026E-20
  53449.867     5.946E-20
  53449.933     5.807E-20
  53449.999     5.651E-20
  53450.066     5.504E-20
  53450.132     5.328E-20
  53450.198     5.172E-20
  53450.265     5.014E-20
  53450.331     4.843E-20
  53450.398     4.657E-20
  53450.464     4.476E-20
  53450.530     4.298E-20
  53450.597     4.081E-20
  53450.663     3.909E-20
  53450.730     3.763E-20
  53450.796     3.656E-20
  53450.862     3.534E-20
  53450.929     3.390E-20
  53450.995     3.249E-20
  53451.062     3.115E-20
  53451.128     2.979E-20
  53451.194     2.846E-20
  53451.261     2.709E-20
  53451.327     2.589E-20
  53451.394     2.481E-20
  53451.460     2.361E-20
  53451.526     2.297E-20
  53451.593     2.200E-20
  53451.659     2.115E-20
  53451.726     2.035E-20
  53451.792     1.968E-20
  53451.858     1.914E-20
  53451.925     1.851E-20
  53451.991     1.787E-20
  53452.058     1.728E-20
  53452.124     1.663E-20
  53452.190     1.601E-20
  53452.257     1.548E-20
  53452.323     1.507E-20
  53452.390     1.453E-20
  53452.456     1.411E-20
  53452.522     1.364E-20
  53452.589     1.337E-20
  53452.655     1.299E-20
  53452.721     1.260E-20
  53452.788     1.223E-20
  53452.854     1.189E-20
  53452.921     1.162E-20
  53452.987     1.143E-20
  53453.053     1.112E-20
  53453.120     1.079E-20
  53453.186     1.046E-20
  53453.253     1.020E-20
  53453.319     9.947E-21
  53453.385     9.636E-21
  53453.452     9.449E-21
  53453.518     9.225E-21
  53453.585     8.955E-21
  53453.651     8.726E-21
  53453.717     8.584E-21
  53453.784     8.440E-21
  53453.850     8.336E-21
  53453.917     8.126E-21
  53453.983     7.939E-21
  53454.050     7.835E-21
  53454.116     7.703E-21
  53454.182     7.650E-21
  53454.249     7.530E-21
  53454.315     7.453E-21
  53454.382     7.340E-21
  53454.448     7.165E-21
  53454.514     7.100E-21
  53454.581     7.029E-21
  53454.647     6.973E-21
  53454.714     6.975E-21
  53454.780     6.970E-21
  53454.846     6.862E-21
  53454.913     6.664E-21
  53454.979     6.541E-21
  53455.046     6.372E-21
  53455.112     6.271E-21
  53455.178     6.295E-21
  53455.245     6.373E-21
  53455.311     6.483E-21
  53455.378     6.610E-21
  53455.444     6.712E-21
  53455.510     6.702E-21
  53455.577     6.662E-21
  53455.643     6.459E-21
  53455.710     6.297E-21
  53455.776     6.177E-21
  53455.842     6.195E-21
  53455.909     6.269E-21
  53455.975     6.318E-21
  53456.042     6.256E-21
  53456.108     6.237E-21
  53456.174     6.221E-21
  53456.241     6.252E-21
  53456.307     6.241E-21
  53456.374     6.203E-21
  53456.440     6.169E-21
  53456.506     6.095E-21
  53456.573     6.066E-21
  53456.639     5.719E-21
  53456.706     5.604E-21
  53456.772     6.043E-21
  53456.839     6.275E-21
  53456.905     6.528E-21
  53456.971     6.635E-21
  53457.038     6.636E-21
  53457.104     6.492E-21
  53457.171     6.359E-21
  53457.237     6.384E-21
  53457.303     6.474E-21
  53457.370     6.508E-21
  53457.436     6.548E-21
  53457.503     6.491E-21
  53457.569     6.459E-21
  53457.635     6.570E-21
  53457.702     6.710E-21
  53457.768     6.851E-21
  53457.835     6.846E-21
  53457.901     6.793E-21
  53457.968     6.739E-21
  53458.034     6.735E-21
  53458.100     6.746E-21
  53458.167     6.932E-21
  53458.233     7.204E-21
  53458.300     7.372E-21
  53458.366     7.513E-21
  53458.432     7.636E-21
  53458.499     7.792E-21
  53458.565     8.043E-21
  53458.632     8.171E-21
  53458.698     8.283E-21
  53458.765     8.386E-21
  53458.831     8.509E-21
  53458.897     8.669E-21
  53458.964     8.927E-21
  53459.030     9.249E-21
  53459.097     9.543E-21
  53459.163     9.844E-21
  53459.229     9.989E-21
  53459.296     1.007E-20
  53459.362     1.016E-20
  53459.429     1.033E-20
  53459.495     1.044E-20
  53459.561     1.058E-20
  53459.628     1.082E-20
  53459.694     1.116E-20
  53459.761     1.158E-20
  53459.827     1.205E-20
  53459.894     1.248E-20
  53459.960     1.278E-20
  53460.026     1.301E-20
  53460.093     1.330E-20
  53460.159     1.360E-20
  53460.226     1.387E-20
  53460.292     1.429E-20
  53460.359     1.469E-20
  53460.425     1.512E-20
  53460.491     1.540E-20
  53460.558     1.580E-20
  53460.624     1.637E-20
  53460.691     1.701E-20
  53460.757     1.752E-20
  53460.823     1.804E-20
  53460.890     1.871E-20
  53460.956     1.937E-20
  53461.023     1.998E-20
  53461.089     2.053E-20
  53461.156     2.102E-20
  53461.222     2.179E-20
  53461.288     2.232E-20
  53461.355     2.306E-20
  53461.421     2.391E-20
  53461.488     2.457E-20
  53461.554     2.521E-20
  53461.621     2.584E-20
  53461.687     2.662E-20
  53461.753     2.760E-20
  53461.820     2.879E-20
  53461.886     3.018E-20
  53461.953     3.149E-20
  53462.019     3.272E-20
  53462.085     3.414E-20
  53462.152     3.553E-20
  53462.218     3.681E-20
  53462.285     3.840E-20
  53462.351     4.026E-20
  53462.418     4.188E-20
  53462.484     4.399E-20
  53462.550     4.571E-20
  53462.617     4.700E-20
  53462.683     4.867E-20
  53462.750     5.043E-20
  53462.816     5.239E-20
  53462.883     5.428E-20
  53462.949     5.610E-20
  53463.015     5.815E-20
  53463.082     6.039E-20
  53463.148     6.274E-20
  53463.215     6.478E-20
  53463.281     6.656E-20
  53463.348     6.820E-20
  53463.414     6.904E-20
  53463.480     7.009E-20
  53463.547     7.117E-20
  53463.613     7.157E-20
  53463.680     7.148E-20
  53463.746     7.154E-20
  53463.813     7.119E-20
  53463.879     7.072E-20
  53463.945     6.940E-20
  53464.012     6.760E-20
  53464.078     6.575E-20
  53464.145     6.543E-20
  53464.211     6.406E-20
  53464.278     6.263E-20
  53464.344     6.105E-20
  53464.410     5.945E-20
  53464.477     5.761E-20
  53464.543     5.547E-20
  53464.610     5.344E-20
  53464.676     5.150E-20
  53464.743     4.952E-20
  53464.809     4.791E-20
  53464.875     4.639E-20
  53464.942     4.491E-20
  53465.008     4.324E-20
  53465.075     4.147E-20
  53465.141     4.005E-20
  53465.208     3.885E-20
  53465.274     3.777E-20
  53465.340     3.648E-20
  53465.407     3.524E-20
  53465.473     3.410E-20
  53465.540     3.304E-20
  53465.606     3.215E-20
  53465.673     3.101E-20
  53465.739     3.003E-20
  53465.806     2.913E-20
  53465.872     2.842E-20
  53465.938     2.809E-20
  53466.005     2.727E-20
  53466.071     2.645E-20
  53466.138     2.555E-20
  53466.204     2.452E-20
  53466.271     2.371E-20
  53466.337     2.306E-20
  53466.403     2.307E-20
  53466.470     2.248E-20
  53466.536     2.186E-20
  53466.603     2.118E-20
  53466.669     2.051E-20
  53466.736     1.987E-20
  53466.802     1.935E-20
  53466.868     1.880E-20
  53466.935     1.822E-20
  53467.001     1.763E-20
  53467.068     1.710E-20
  53467.134     1.666E-20
  53467.201     1.641E-20
  53467.267     1.613E-20
  53467.334     1.595E-20
  53467.400     1.579E-20
  53467.466     1.544E-20
  53467.533     1.505E-20
  53467.599     1.480E-20
  53467.666     1.465E-20
  53467.732     1.449E-20
  53467.799     1.433E-20
  53467.865     1.436E-20
  53467.932     1.426E-20
  53467.998     1.410E-20
  53468.064     1.406E-20
  53468.131     1.396E-20
  53468.197     1.384E-20
  53468.264     1.376E-20
  53468.330     1.368E-20
  53468.397     1.369E-20
  53468.463     1.374E-20
  53468.529     1.380E-20
  53468.596     1.384E-20
  53468.662     1.390E-20
  53468.729     1.390E-20
  53468.795     1.383E-20
  53468.862     1.374E-20
  53468.928     1.387E-20
  53468.995     1.411E-20
  53469.061     1.427E-20
  53469.127     1.436E-20
  53469.194     1.429E-20
  53469.260     1.440E-20
  53469.327     1.460E-20
  53469.393     1.487E-20
  53469.460     1.524E-20
  53469.526     1.553E-20
  53469.593     1.573E-20
  53469.659     1.594E-20
  53469.725     1.621E-20
  53469.792     1.656E-20
  53469.858     1.699E-20
  53469.925     1.753E-20
  53469.991     1.796E-20
  53470.058     1.811E-20
  53470.124     1.830E-20
  53470.191     1.857E-20
  53470.257     1.907E-20
  53470.323     1.959E-20
  53470.390     2.026E-20
  53470.456     2.095E-20
  53470.523     2.176E-20
  53470.589     2.257E-20
  53470.656     2.330E-20
  53470.722     2.395E-20
  53470.789     2.467E-20
  53470.855     2.529E-20
  53470.922     2.591E-20
  53470.988     2.662E-20
  53471.054     2.744E-20
  53471.121     2.842E-20
  53471.187     2.948E-20
  53471.254     3.092E-20
  53471.320     3.211E-20
  53471.387     3.335E-20
  53471.453     3.476E-20
  53471.520     3.610E-20
  53471.586     3.744E-20
  53471.652     3.872E-20
  53471.719     3.990E-20
  53471.785     4.100E-20
  53471.852     4.206E-20
  53471.918     4.365E-20
  53471.985     4.540E-20
  53472.051     4.721E-20
  53472.118     4.883E-20
  53472.184     5.014E-20
  53472.251     5.128E-20
  53472.317     5.253E-20
  53472.383     5.397E-20
  53472.450     5.527E-20
  53472.516     5.622E-20
  53472.583     5.733E-20
  53472.649     5.817E-20
  53472.716     5.844E-20
  53472.782     5.825E-20
  53472.849     5.774E-20
  53472.915     5.750E-20
  53472.981     5.739E-20
  53473.048     5.723E-20
  53473.114     5.672E-20
  53473.181     5.591E-20
  53473.247     5.461E-20
  53473.314     5.301E-20
  53473.380     5.156E-20
  53473.447     5.027E-20
  53473.513     4.886E-20
  53473.580     4.783E-20
  53473.646     4.691E-20
  53473.713     4.600E-20
  53473.779     4.519E-20
  53473.845     4.416E-20
  53473.912     4.308E-20
  53473.978     4.178E-20
  53474.045     4.108E-20
  53474.111     4.042E-20
  53474.178     3.952E-20
  53474.244     3.862E-20
  53474.311     3.785E-20
  53474.377     3.715E-20
  53474.444     3.649E-20
  53474.510     3.606E-20
  53474.576     3.568E-20
  53474.643     3.531E-20
  53474.709     3.502E-20
  53474.776     3.468E-20
  53474.842     3.443E-20
  53474.909     3.451E-20
  53474.975     3.442E-20
  53475.042     3.428E-20
  53475.108     3.400E-20
  53475.175     3.372E-20
  53475.241     3.365E-20
  53475.308     3.379E-20
  53475.374     3.393E-20
  53475.440     3.390E-20
  53475.507     3.390E-20
  53475.573     3.393E-20
  53475.640     3.381E-20
  53475.706     3.350E-20
  53475.773     3.333E-20
  53475.839     3.334E-20
  53475.906     3.339E-20
  53475.972     3.363E-20
  53476.039     3.394E-20
  53476.105     3.399E-20
  53476.172     3.400E-20
  53476.238     3.411E-20
  53476.304     3.394E-20
  53476.371     3.385E-20
  53476.437     3.380E-20
  53476.504     3.371E-20
  53476.570     3.341E-20
  53476.637     3.295E-20
  53476.703     3.240E-20
  53476.770     3.154E-20
  53476.836     3.076E-20
  53476.903     3.003E-20
  53476.969     2.946E-20
  53477.036     2.885E-20
  53477.102     2.834E-20
  53477.168     2.762E-20
  53477.235     2.690E-20
  53477.301     2.625E-20
  53477.368     2.550E-20
  53477.434     2.461E-20
  53477.501     2.362E-20
  53477.567     2.303E-20
  53477.634     2.215E-20
  53477.700     2.134E-20
  53477.767     2.064E-20
  53477.833     2.003E-20
  53477.900     1.956E-20
  53477.966     1.920E-20
  53478.033     1.859E-20
  53478.099     1.782E-20
  53478.165     1.720E-20
  53478.232     1.673E-20
  53478.298     1.627E-20
  53478.365     1.587E-20
  53478.431     1.556E-20
  53478.498     1.513E-20
  53478.564     1.464E-20
  53478.631     1.430E-20
  53478.697     1.401E-20
  53478.764     1.368E-20
  53478.830     1.343E-20
  53478.897     1.307E-20
  53478.963     1.265E-20
  53479.030     1.228E-20
  53479.096     1.191E-20
  53479.163     1.156E-20
  53479.229     1.119E-20
  53479.295     1.085E-20
  53479.362     1.041E-20
  53479.428     1.002E-20
  53479.495     9.645E-21
  53479.561     9.378E-21
  53479.628     9.169E-21
  53479.694     8.932E-21
  53479.761     8.702E-21
  53479.827     8.458E-21
  53479.894     8.191E-21
  53479.960     7.940E-21
  53480.027     7.695E-21
  53480.093     7.475E-21
  53480.160     7.299E-21
  53480.226     7.029E-21
  53480.293     6.814E-21
  53480.359     6.681E-21
  53480.426     6.533E-21
  53480.492     6.432E-21
  53480.558     6.297E-21
  53480.625     6.131E-21
  53480.691     6.141E-21
  53480.758     6.106E-21
  53480.824     5.971E-21
  53480.891     5.862E-21
  53480.957     5.765E-21
  53481.024     5.586E-21
  53481.090     5.462E-21
  53481.157     5.247E-21
  53481.223     4.998E-21
  53481.290     4.868E-21
  53481.356     4.870E-21
  53481.423     4.873E-21
  53481.489     4.799E-21
  53481.556     4.624E-21
  53481.622     4.441E-21
  53481.689     4.311E-21
  53481.755     4.214E-21
  53481.822     4.213E-21
  53481.888     4.199E-21
  53481.954     4.125E-21
  53482.021     4.061E-21
  53482.087     3.975E-21
  53482.154     3.887E-21
  53482.220     3.823E-21
  53482.287     3.855E-21
  53482.353     3.877E-21
  53482.420     3.869E-21
  53482.486     3.824E-21
  53482.553     3.815E-21
  53482.619     3.785E-21
  53482.686     3.671E-21
  53482.752     3.592E-21
  53482.819     3.498E-21
  53482.885     3.474E-21
  53482.952     3.497E-21
  53483.018     3.567E-21
  53483.085     3.553E-21
  53483.151     3.433E-21
  53483.218     3.305E-21
  53483.284     3.189E-21
  53483.351     3.061E-21
  53483.417     3.039E-21
  53483.484     3.074E-21
  53483.550     3.166E-21
  53483.617     3.237E-21
  53483.683     3.169E-21
  53483.749     3.034E-21
  53483.816     2.864E-21
  53483.882     2.696E-21
  53483.949     2.586E-21
  53484.015     2.499E-21
  53484.082     2.563E-21
  53484.148     2.496E-21
  53484.215     2.451E-21
  53484.281     2.476E-21
  53484.348     2.492E-21
  53484.414     2.481E-21
  53484.481     2.461E-21
  53484.547     2.472E-21
  53484.614     2.448E-21
  53484.680     2.350E-21
  53484.747     2.287E-21
  53484.813     2.204E-21
  53484.880     2.196E-21
  53484.946     2.251E-21
  53485.013     2.304E-21
  53485.079     2.248E-21
  53485.146     2.129E-21
  53485.212     1.998E-21
  53485.279     1.908E-21
  53485.345     1.824E-21
  53485.412     1.870E-21
  53485.478     2.013E-21
  53485.545     2.047E-21
  53485.611     1.943E-21
  53485.678     1.882E-21
  53485.744     1.806E-21
  53485.811     1.833E-21
  53485.877     1.881E-21
  53485.944     1.920E-21
  53486.010     1.920E-21
  53486.077     1.989E-21
  53486.143     2.057E-21
  53486.209     2.018E-21
  53486.276     1.982E-21
  53486.342     1.904E-21
  53486.409     1.748E-21
  53486.475     1.665E-21
  53486.542     1.619E-21
  53486.608     1.544E-21
  53486.675     1.469E-21
  53486.741     1.486E-21
  53486.808     1.578E-21
  53486.874     1.609E-21
  53486.941     1.514E-21
  53487.007     1.478E-21
  53487.074     1.476E-21
  53487.140     1.508E-21
  53487.207     1.602E-21
  53487.273     1.735E-21
  53487.340     1.879E-21
  53487.406     1.942E-21
  53487.473     1.869E-21
  53487.539     1.732E-21
  53487.606     1.584E-21
  53487.672     1.480E-21
  53487.739     1.491E-21
  53487.805     1.492E-21
  53487.872     1.546E-21
  53487.938     1.633E-21
  53488.005     1.679E-21
  53488.071     1.694E-21
  53488.138     1.571E-21
  53488.204     1.431E-21
  53488.271     1.345E-21
  53488.337     1.366E-21
  53488.404     1.448E-21
  53488.470     1.479E-21
  53488.537     1.476E-21
  53488.603     1.460E-21
  53488.670     1.385E-21
  53488.736     1.318E-21
  53488.803     1.345E-21
  53488.869     1.310E-21
  53488.936     1.331E-21
  53489.002     1.436E-21
  53489.069     1.442E-21
  53489.135     1.374E-21
  53489.202     1.295E-21
  53489.268     1.162E-21
  53489.335     1.081E-21
  53489.401     1.009E-21
  53489.468     9.262E-22
  53489.534     8.840E-22
  53489.601     8.914E-22
  53489.667     9.675E-22
  53489.734     1.012E-21
  53489.800     1.069E-21
  53489.867     1.077E-21
  53489.933     1.098E-21
  53490.000     1.123E-21
  53490.066     1.225E-21
  53490.133     1.326E-21
  53490.199     1.353E-21
  53490.266     1.341E-21
  53490.332     1.376E-21
  53490.399     1.445E-21
  53490.465     1.370E-21
  53490.532     1.345E-21
  53490.598     1.344E-21
  53490.665     1.332E-21
  53490.731     1.264E-21
  53490.798     1.246E-21
  53490.864     1.216E-21
  53490.931     1.164E-21
  53490.997     1.196E-21
  53491.064     1.242E-21
  53491.130     1.305E-21
  53491.197     1.338E-21
  53491.263     1.252E-21
  53491.330     1.105E-21
  53491.396     1.013E-21
  53491.463     9.871E-22
  53491.529     1.002E-21
  53491.596     1.040E-21
  53491.662     1.062E-21
  53491.729     1.132E-21
  53491.795     1.303E-21
  53491.862     1.477E-21
  53491.928     1.594E-21
  53491.995     1.547E-21
  53492.061     1.404E-21
  53492.128     1.165E-21
  53492.194     9.627E-22
  53492.261     9.527E-22
  53492.327     9.159E-22
  53492.394     1.068E-21
  53492.460     1.244E-21
  53492.527     1.380E-21
  53492.593     1.393E-21
  53492.660     1.421E-21
  53492.726     1.433E-21
  53492.793     1.350E-21
  53492.859     1.291E-21
  53492.926     1.229E-21
  53492.992     1.175E-21
  53493.059     1.110E-21
  53493.126     1.097E-21
  53493.192     1.156E-21
  53493.259     1.218E-21
  53493.325     1.246E-21
  53493.392     1.279E-21
  53493.458     1.224E-21
  53493.525     1.061E-21
  53493.591     9.509E-22
  53493.658     9.231E-22
  53493.724     9.361E-22
  53493.791     8.668E-22
  53493.857     7.906E-22
  53493.924     7.542E-22
  53493.990     8.022E-22
  53494.057     8.249E-22
  53494.123     8.082E-22
  53494.190     7.888E-22
  53494.256     7.281E-22
  53494.323     6.730E-22
  53494.389     7.624E-22
  53494.456     9.030E-22
  53494.522     1.064E-21
  53494.589     1.224E-21
  53494.655     1.228E-21
  53494.722     1.125E-21
  53494.788     1.019E-21
  53494.855     9.334E-22
  53494.921     8.267E-22
  53494.988     7.673E-22
  53495.054     7.772E-22
  53495.121     7.526E-22
  53495.187     6.350E-22
  53495.254     5.376E-22
  53495.320     4.284E-22
  53495.387     3.292E-22
  53495.453     3.542E-22
  53495.520     4.910E-22
  53495.586     6.672E-22
  53495.653     7.189E-22
  53495.720     6.362E-22
  53495.786     4.701E-22
  53495.853     4.228E-22
  53495.919     4.337E-22
  53495.986     6.172E-22
  53496.052     7.023E-22
  53496.119     6.760E-22
  53496.185     6.570E-22
  53496.252     5.812E-22
  53496.318     5.052E-22
  53496.385     5.348E-22
  53496.451     6.171E-22
  53496.518     7.361E-22
  53496.584     7.544E-22
  53496.651     6.748E-22
  53496.717     6.347E-22
  53496.784     5.292E-22
  53496.850     5.309E-22
  53496.917     6.271E-22
  53496.983     8.137E-22
  53497.050     9.865E-22
  53497.116     9.573E-22
  53497.183     9.585E-22
  53497.249     9.819E-22
  53497.316     9.742E-22
  53497.383     9.634E-22
  53497.449     1.017E-21
  53497.516     1.008E-21
  53497.582     8.763E-22
  53497.649     8.431E-22
  53497.715     7.867E-22
  53497.782     6.733E-22
  53497.848     6.090E-22
  53497.915     6.415E-22
  53497.981     7.174E-22
  53498.048     8.104E-22
  53498.114     8.765E-22
  53498.181     8.282E-22
  53498.247     7.849E-22
  53498.314     7.310E-22
  53498.380     5.882E-22
  53498.447     4.813E-22
  53498.513     4.906E-22
  53498.580     5.183E-22
  53498.646     6.551E-22
  53498.713     6.866E-22
  53498.779     5.618E-22
  53498.846     4.234E-22
  53498.913     3.028E-22
  53498.979     2.074E-22
  53499.046     2.194E-22
  53499.112     2.687E-22
  53499.179     4.493E-22
  53499.245     6.159E-22
  53499.312     6.363E-22
  53499.378     5.833E-22
  53499.445     5.205E-22
  53499.511     4.789E-22
  53499.578     5.441E-22
  53499.644     5.712E-22
  53499.711     5.672E-22
  53499.777     6.142E-22
  53499.844     7.055E-22
  53499.910     7.556E-22
  53499.977     7.448E-22
  53500.044     7.482E-22
  53500.110     8.494E-22
  53500.177     9.965E-22
  53500.243     1.048E-21
  53500.310     1.049E-21
  53500.376     9.613E-22
  53500.443     9.513E-22
  53500.509     9.419E-22
  53500.576     8.809E-22
  53500.642     8.268E-22
  53500.709     7.858E-22
  53500.775     7.969E-22
  53500.842     7.880E-22
  53500.908     7.608E-22
  53500.975     6.955E-22
  53501.041     6.896E-22
  53501.108     6.637E-22
  53501.175     6.728E-22
  53501.241     6.430E-22
  53501.308     6.632E-22
  53501.374     6.381E-22
  53501.441     4.954E-22
  53501.507     4.266E-22
  53501.574     4.526E-22
  53501.640     5.765E-22
  53501.707     7.209E-22
  53501.773     7.986E-22
  53501.840     7.661E-22
  53501.906     6.377E-22
  53501.973     5.315E-22
  53502.039     4.377E-22
  53502.106     4.306E-22
  53502.173     4.034E-22
  53502.239     3.890E-22
  53502.306     4.031E-22
  53502.372     3.653E-22
  53502.439     3.935E-22
  53502.505     4.862E-22
  53502.572     5.609E-22
  53502.638     6.038E-22
  53502.705     7.072E-22
  53502.771     7.577E-22
  53502.838     6.977E-22
  53502.904     5.738E-22
  53502.971     4.330E-22
  53503.037     3.787E-22
  53503.104     3.709E-22
  53503.171     3.758E-22
  53503.237     4.858E-22
  53503.304     5.855E-22
  53503.370     6.494E-22
  53503.437     6.289E-22
  53503.503     6.560E-22
  53503.570     5.867E-22
  53503.636     5.855E-22
  53503.703     6.588E-22
  53503.769     7.368E-22
  53503.836     8.136E-22
  53503.902     8.403E-22
  53503.969     8.274E-22
  53504.036     7.454E-22
  53504.102     6.741E-22
  53504.169     5.460E-22
  53504.235     4.764E-22
  53504.302     4.434E-22
  53504.368     4.104E-22
  53504.435     3.494E-22
  53504.501     3.826E-22
  53504.568     4.245E-22
  53504.634     4.831E-22
  53504.701     3.841E-22
  53504.768     2.404E-22
  53504.834     1.749E-22
  53504.901     2.184E-22
  53504.967     3.492E-22
  53505.034     5.331E-22
  53505.100     6.905E-22
  53505.167     7.235E-22
  53505.233     7.000E-22
  53505.300     6.919E-22
  53505.366     6.202E-22
  53505.433     6.052E-22
  53505.499     6.180E-22
  53505.566     6.375E-22
  53505.633     6.309E-22
  53505.699     6.633E-22
  53505.766     5.932E-22
  53505.832     5.059E-22
  53505.899     4.364E-22
  53505.965     4.102E-22
  53506.032     4.826E-22
  53506.098     5.624E-22
  53506.165     6.021E-22
  53506.231     6.899E-22
  53506.298     7.968E-22
  53506.365     8.613E-22
  53506.431     8.376E-22
  53506.498     7.479E-22
  53506.564     7.216E-22
  53506.631     6.723E-22
  53506.697     6.259E-22
  53506.764     5.683E-22
  53506.830     5.620E-22
  53506.897     6.163E-22
  53506.963     6.823E-22
  53507.030     7.270E-22
  53507.097     7.667E-22
  53507.163     7.207E-22
  53507.230     6.886E-22
  53507.296     6.670E-22
  53507.363     6.728E-22
  53507.429     7.519E-22
  53507.496     7.633E-22
  53507.562     6.409E-22
  53507.629     6.171E-22
  53507.696     6.354E-22
  53507.762     6.141E-22
  53507.829     4.945E-22
  53507.895     4.192E-22
  53507.962     4.628E-22
  53508.028     4.546E-22
  53508.095     4.534E-22
  53508.161     4.935E-22
  53508.228     4.944E-22
  53508.294     5.493E-22
  53508.361     5.734E-22
  53508.428     5.597E-22
  53508.494     4.973E-22
  53508.561     5.024E-22
  53508.627     5.924E-22
  53508.694     7.837E-22
  53508.760     8.859E-22
  53508.827     8.584E-22
  53508.893     7.460E-22
  53508.960     5.907E-22
  53509.027     4.499E-22
  53509.093     2.970E-22
  53509.160     2.157E-22
  53509.226     2.290E-22
  53509.293     2.467E-22
  53509.359     2.509E-22
  53509.426     3.226E-22
  53509.492     2.568E-22
  53509.559     1.918E-22
  53509.626     1.329E-22
  53509.692     1.919E-22
  53509.759     3.104E-22
  53509.825     4.470E-22
  53509.892     5.335E-22
  53509.958     6.050E-22
  53510.025     6.975E-22
  53510.091     7.511E-22
  53510.158     6.784E-22
  53510.225     5.916E-22
  53510.291     5.130E-22
  53510.358     4.574E-22
  53510.424     4.999E-22
  53510.491     4.791E-22
  53510.557     4.791E-22
  53510.624     5.320E-22
  53510.690     4.484E-22
  53510.757     3.189E-22
  53510.824     2.181E-22
  53510.890     1.471E-22
  53510.957     1.329E-22
  53511.023     2.565E-22
  53511.090     3.763E-22
  53511.156     4.091E-22
  53511.223     4.168E-22
  53511.289     4.448E-22
  53511.356     4.749E-22
  53511.423     5.148E-22
  53511.489     5.514E-22
  53511.556     5.406E-22
  53511.622     5.322E-22
  53511.689     5.332E-22
  53511.755     5.065E-22
  53511.822     4.800E-22
  53511.889     4.411E-22
  53511.955     4.290E-22
  53512.022     4.665E-22
  53512.088     4.552E-22
  53512.155     4.934E-22
  53512.221     5.536E-22
  53512.288     5.783E-22
  53512.354     5.009E-22
  53512.421     5.749E-22
  53512.488     7.595E-22
  53512.554     7.847E-22
  53512.621     8.386E-22
  53512.687     8.482E-22
  53512.754     7.140E-22
  53512.820     5.311E-22
  53512.887     4.149E-22
  53512.954     3.635E-22
  53513.020     4.664E-22
  53513.087     6.027E-22
  53513.153     6.432E-22
  53513.220     6.040E-22
  53513.286     5.077E-22
  53513.353     4.223E-22
  53513.420     4.042E-22
  53513.486     3.961E-22
  53513.553     4.184E-22
  53513.619     4.483E-22
  53513.686     4.678E-22
  53513.752     5.127E-22
  53513.819     5.000E-22
  53513.885     4.323E-22
  53513.952     3.630E-22
  53514.019     3.597E-22
  53514.085     3.761E-22
  53514.152     4.045E-22
  53514.218     3.595E-22
  53514.285     3.508E-22
  53514.351     3.490E-22
  53514.418     3.450E-22
  53514.485     2.831E-22
  53514.551     2.286E-22
  53514.618     3.157E-22
  53514.684     4.775E-22
  53514.751     6.254E-22
  53514.817     6.474E-22
  53514.884     5.794E-22
  53514.951     5.007E-22
  53515.017     4.129E-22
  53515.084     3.041E-22
  53515.150     2.207E-22
  53515.217     2.906E-22
  53515.283     3.177E-22
  53515.350     3.758E-22
  53515.417     5.384E-22
  53515.483     6.632E-22
  53515.550     7.021E-22
  53515.616     6.640E-22
  53515.683     6.118E-22
  53515.749     5.373E-22
  53515.816     4.186E-22
  53515.883     3.883E-22
  53515.949     4.452E-22
  53516.016     4.926E-22
  53516.082     5.289E-22
  53516.149     5.818E-22
  53516.215     6.224E-22
  53516.282     6.944E-22
  53516.349     7.296E-22
  53516.415     7.433E-22
  53516.482     8.082E-22
  53516.548     8.179E-22
  53516.615     7.940E-22
  53516.681     7.789E-22
  53516.748     7.124E-22
  53516.815     7.067E-22
  53516.881     6.512E-22
  53516.948     5.942E-22
  53517.014     5.873E-22
  53517.081     6.196E-22
  53517.147     5.731E-22
  53517.214     5.018E-22
  53517.281     3.904E-22
  53517.347     3.834E-22
  53517.414     4.500E-22
  53517.480     4.806E-22
  53517.547     5.016E-22
  53517.614     5.739E-22
  53517.680     6.663E-22
  53517.747     7.100E-22
  53517.813     6.565E-22
  53517.880     6.127E-22
  53517.946     5.083E-22
  53518.013     4.880E-22
  53518.080     5.269E-22
  53518.146     5.499E-22
  53518.213     6.444E-22
  53518.279     7.652E-22
  53518.346     8.055E-22
  53518.412     8.150E-22
  53518.479     7.818E-22
  53518.546     7.361E-22
  53518.612     5.738E-22
  53518.679     4.940E-22
  53518.745     5.045E-22
  53518.812     4.670E-22
  53518.879     4.017E-22
  53518.945     3.181E-22
  53519.012     2.153E-22
  53519.078     1.042E-22
  53519.145     1.314E-22
  53519.211     2.223E-22
  53519.278     3.757E-22
  53519.345     5.349E-22
  53519.411     6.314E-22
  53519.478     6.314E-22
  53519.544     5.485E-22
  53519.611     4.516E-22
  53519.677     4.111E-22
  53519.744     4.441E-22
  53519.811     4.927E-22
  53519.877     6.315E-22
  53519.944     7.824E-22
  53520.010     7.802E-22
  53520.077     7.740E-22
  53520.144     7.610E-22
  53520.210     7.718E-22
  53520.277     8.242E-22
  53520.343     8.826E-22
  53520.410     8.711E-22
  53520.476     8.105E-22
  53520.543     6.799E-22
  53520.610     5.516E-22
  53520.676     5.913E-22
  53520.743     5.905E-22
  53520.809     5.192E-22
  53520.876     4.720E-22
  53520.943     4.135E-22
  53521.009     3.766E-22
  53521.076     3.834E-22
  53521.142     4.100E-22
  53521.209     3.909E-22
  53521.276     4.054E-22
  53521.342     5.205E-22
  53521.409     6.070E-22
  53521.475     6.628E-22
  53521.542     7.083E-22
  53521.608     6.712E-22
  53521.675     6.089E-22
  53521.742     5.438E-22
  53521.808     4.720E-22
  53521.875     4.067E-22
  53521.941     3.386E-22
  53522.008     3.152E-22
  53522.075     3.461E-22
  53522.141     3.978E-22
  53522.208     4.118E-22
  53522.274     5.257E-22
  53522.341     5.811E-22
  53522.408     5.982E-22
  53522.474     6.170E-22
  53522.541     6.143E-22
  53522.607     5.399E-22
  53522.674     5.324E-22
  53522.740     5.053E-22
  53522.807     4.721E-22
  53522.874     4.310E-22
  53522.940     3.814E-22
  53523.007     3.609E-22
  53523.073     2.613E-22
  53523.140     1.421E-22
  53523.207     6.645E-23
  53523.273     7.124E-23
  53523.340     1.152E-22
  53523.406     1.348E-22
  53523.473     1.530E-22
  53523.540     2.698E-22
  53523.606     2.946E-22
  53523.673     3.371E-22
  53523.739     4.188E-22
  53523.806     4.134E-22
  53523.873     3.764E-22
  53523.939     3.596E-22
  53524.006     3.211E-22
  53524.072     2.336E-22
  53524.139     1.030E-22
  53524.206     9.666E-23
  53524.272     1.538E-22
  53524.339     1.541E-22
  53524.405     1.385E-22
  53524.472     8.643E-23
  53524.539     4.318E-23
  53524.605     1.859E-23
  53524.672    -2.719E-23
  53524.738    -6.574E-23
  53524.805    -1.583E-24
  53524.872     5.670E-24
  53524.938     3.076E-23
  53525.005     9.539E-23
  53525.071     1.039E-22
  53525.138     1.115E-22
  53525.205     1.196E-22
  53525.271     1.540E-22
  53525.338     8.403E-23
  53525.404     3.848E-23
  53525.471     9.704E-23
  53525.537     1.714E-22
  53525.604     2.255E-22
  53525.671     2.813E-22
  53525.737     1.979E-22
  53525.804     1.065E-22
  53525.870     5.985E-23
  53525.937     5.582E-23
  53526.004     3.281E-23
  53526.070    -1.462E-23
  53526.137    -3.098E-24
  53526.203    -1.949E-23
  53526.270     3.763E-23
  53526.337     1.333E-22
  53526.403     1.628E-22
  53526.470     1.390E-22
  53526.537     1.382E-22
  53526.603     6.263E-23
  53526.670    -4.760E-23
  53526.736    -7.488E-23
  53526.803     7.674E-23
  53526.870     1.207E-22
  53526.936     1.284E-22
  53527.003     1.094E-22
  53527.069     7.148E-23
  53527.136     5.032E-23
  53527.203     9.744E-24
  53527.269    -2.198E-23
  53527.336    -1.637E-23
  53527.402    -3.031E-23
  53527.469     1.047E-23
  53527.536     1.438E-22
  53527.602     2.398E-22
  53527.669     2.149E-22
  53527.735     2.084E-22
  53527.802     2.099E-22
  53527.869     2.219E-22
  53527.935     1.949E-22
  53528.002     1.277E-22
  53528.068    -5.195E-24
  53528.135    -1.070E-22
  53528.202    -1.770E-22
  53528.268    -1.470E-22
  53528.335    -1.111E-22
  53528.401    -5.349E-23
  53528.468     1.730E-24
  53528.535     5.382E-23
  53528.601     7.299E-23
  53528.668    -3.811E-23
  53528.734    -1.099E-22
  53528.801    -5.473E-23
  53528.868    -6.376E-24
  53528.934    -3.287E-23
  53529.001    -9.277E-23
  53529.068    -1.364E-22
  53529.134    -1.729E-22
  53529.201    -2.088E-22
  53529.267    -2.063E-22
  53529.334    -1.566E-22
  53529.401    -1.277E-22
  53529.467    -8.127E-23
  53529.534    -5.085E-23
  53529.600    -8.595E-23
  53529.667    -5.026E-23
  53529.734     2.849E-23
  53529.800     1.179E-22
  53529.867     5.958E-23
  53529.933    -1.730E-23
  53530.000     2.007E-23
  53530.067     1.324E-22
  53530.133     2.467E-22
  53530.200     3.724E-22
  53530.266     3.723E-22
  53530.333     2.321E-22
  53530.400    -3.356E-23
  53530.466    -1.413E-22
  53530.533    -1.140E-22
  53530.600    -5.336E-25
  53530.666     1.108E-22
  53530.733     1.679E-22
  53530.799     1.781E-22
  53530.866     1.600E-22
  53530.933     1.138E-22
  53530.999     7.301E-24
  53531.066    -1.149E-22
  53531.132    -1.298E-22
  53531.199    -6.256E-23
  53531.266     1.992E-23
  53531.332     1.440E-22
  53531.399     2.364E-22
  53531.466     3.215E-22
  53531.532     4.086E-22
  53531.599     4.430E-22
  53531.665     4.077E-22
  53531.732     3.191E-22
  53531.799     2.191E-22
  53531.865     2.213E-22
  53531.932     2.814E-22
  53531.998     2.911E-22
  53532.065     2.685E-22
  53532.132     1.851E-22
  53532.198     6.933E-23
  53532.265     3.627E-24
  53532.332    -7.708E-23
  53532.398    -9.247E-23
  53532.465    -6.212E-23
  53532.531    -1.561E-22
  53532.598    -2.087E-22
  53532.665    -1.039E-22
  53532.731    -1.147E-23
  53532.798     2.337E-24
  53532.865     4.938E-23
  53532.931     9.213E-23
  53532.998     1.422E-22
  53533.064     1.924E-22
  53533.131     2.359E-22
  53533.198     2.763E-22
  53533.264     2.062E-22
  53533.331     1.520E-22
  53533.397     1.596E-22
  53533.464     1.688E-22
  53533.531     1.884E-22
  53533.597     1.487E-22
  53533.664     7.726E-23
  53533.731     1.325E-23
  53533.797    -6.824E-23
  53533.864    -6.375E-23
  53533.930    -4.172E-24
  53533.997     8.357E-24
  53534.064     6.256E-24
  53534.130     1.107E-22
  53534.197     1.208E-22
  53534.264     5.291E-23
  53534.330    -3.482E-23
  53534.397    -1.156E-22
  53534.463    -1.896E-22
  53534.530    -1.726E-22
  53534.597    -3.557E-23
  53534.663     7.583E-23
  53534.730     1.817E-22
  53534.797     2.133E-22
  53534.863     2.626E-22
  53534.930     1.888E-22
  53534.996     1.360E-22
  53535.063     9.340E-23
  53535.130    -6.524E-24
  53535.196    -1.428E-23
  53535.263     1.098E-23
  53535.330    -4.022E-23
  53535.396    -5.980E-23
  53535.463    -1.049E-22
  53535.529    -1.008E-22
  53535.596    -5.981E-23
  53535.663     3.155E-24
  53535.729     7.538E-23
  53535.796     1.409E-22
  53535.863     1.123E-22
  53535.929     7.457E-23
  53535.996     6.515E-23
  53536.062     8.229E-23
  53536.129     4.086E-23
  53536.196     3.669E-23
  53536.262     7.505E-23
  53536.329     4.477E-23
  53536.396     7.363E-23
  53536.462     5.155E-23
  53536.529     4.347E-24
  53536.595    -1.249E-22
  53536.662    -2.094E-22
  53536.729    -2.506E-22
  53536.795    -1.736E-22
  53536.862    -1.068E-22
  53536.929    -2.649E-23
  53536.995     2.952E-23
  53537.062    -9.396E-24
  53537.129    -5.168E-23
  53537.195    -2.986E-23
  53537.262    -2.583E-23
  53537.328    -4.828E-23
  53537.395    -1.527E-23
  53537.462    -5.399E-24
  53537.528    -4.868E-23
  53537.595    -1.358E-22
  53537.662    -1.123E-22
  53537.728    -3.002E-23
  53537.795     7.587E-24
  53537.861    -1.285E-23
  53537.928    -4.534E-23
  53537.995    -7.837E-23
  53538.061    -9.413E-23
  53538.128    -9.540E-23
  53538.195    -4.992E-23
  53538.261     3.174E-24
  53538.328     6.492E-23
  53538.395     1.423E-22
  53538.461     1.684E-22
  53538.528     2.621E-22
  53538.594     3.196E-22
  53538.661     2.264E-22
  53538.728     9.718E-23
  53538.794    -1.151E-23
  53538.861    -2.457E-23
  53538.928     4.877E-23
  53538.994     6.202E-23
  53539.061     9.070E-23
  53539.128     1.406E-22
  53539.194     1.956E-22
  53539.261     2.352E-22
  53539.327     2.332E-22
  53539.394     2.261E-22
  53539.461     1.896E-22
  53539.527     1.282E-22
  53539.594     1.056E-22
  53539.661     1.106E-22
  53539.727     7.323E-23
  53539.794     1.495E-22
  53539.861     3.125E-22
  53539.927     3.601E-22
  53539.994     2.614E-22
  53540.060     1.173E-22
  53540.127    -9.376E-24
  53540.194     2.588E-23
  53540.260     1.024E-22
  53540.327     1.376E-22
  53540.394     1.165E-22
  53540.460     1.165E-22
  53540.527     6.013E-23
  53540.594    -3.286E-23
  53540.660    -7.962E-23
  53540.727    -1.197E-22
  53540.794    -1.587E-23
  53540.860     1.239E-22
  53540.927     2.495E-22
  53540.993     3.369E-22
  53541.060     2.152E-22
  53541.127     1.011E-22
  53541.193     3.292E-23
  53541.260    -1.672E-23
  53541.327    -6.089E-24
  53541.392    -1.700E-23
