#  O2 xsec;CfA;O2WB10X0;300 K;54685-55115 cm-1;4816 pts        
#    WNO      SIGMA
  54685.019     5.379E-22
  54685.877     5.191E-22
  54687.539     6.477E-22
  54687.893     1.678E-21
  54687.980     1.938E-21
  54688.067     2.177E-21
  54688.154     2.625E-21
  54688.241     3.329E-21
  54688.328     3.860E-21
  54688.415     4.161E-21
  54688.501     4.350E-21
  54688.588     4.638E-21
  54688.675     4.780E-21
  54688.762     4.463E-21
  54688.849     3.713E-21
  54688.936     2.804E-21
  54689.023     1.959E-21
  54689.110     1.462E-21
  54689.197     1.542E-21
  54689.284     1.864E-21
  54689.371     1.811E-21
  54689.457     1.406E-21
  54689.544     1.190E-21
  54689.631     1.350E-21
  54689.718     1.618E-21
  54689.805     1.753E-21
  54689.892     1.595E-21
  54689.979     1.400E-21
  54690.066     1.245E-21
  54690.153     1.079E-21
  54690.240     1.404E-21
  54690.327     2.328E-21
  54690.413     3.385E-21
  54690.500     4.408E-21
  54690.587     5.197E-21
  54690.674     5.583E-21
  54690.761     5.948E-21
  54690.848     6.571E-21
  54690.935     6.796E-21
  54691.022     6.366E-21
  54691.109     6.030E-21
  54691.196     5.813E-21
  54691.283     5.105E-21
  54691.369     4.067E-21
  54691.453     3.175E-21
  54691.548     2.554E-21
  54691.633     2.165E-21
  54691.715     1.816E-21
  54691.794     1.458E-21
  54691.869     1.152E-21
  54692.069     8.683E-22
  54692.145     7.347E-22
  54692.217     6.512E-22
  54692.358     5.858E-22
  54692.430     5.844E-22
  54692.502     5.875E-22
  54692.574     5.925E-22
  54692.646     5.985E-22
  54692.718     5.981E-22
  54692.790     5.948E-22
  54692.862     5.886E-22
  54692.934     5.811E-22
  54693.006     5.711E-22
  54693.078     5.673E-22
  54693.150     5.610E-22
  54693.222     5.550E-22
  54693.294     5.554E-22
  54693.366     5.577E-22
  54693.438     5.515E-22
  54693.510     5.496E-22
  54693.582     5.495E-22
  54693.654     5.510E-22
  54693.726     5.505E-22
  54693.798     5.564E-22
  54693.870     5.591E-22
  54693.942     5.673E-22
  54694.014     5.710E-22
  54694.086     5.738E-22
  54694.158     5.794E-22
  54694.230     5.875E-22
  54694.302     6.013E-22
  54694.374     6.116E-22
  54694.446     6.225E-22
  54694.518     6.353E-22
  54694.590     6.563E-22
  54694.662     6.874E-22
  54694.734     7.155E-22
  54694.806     7.307E-22
  54694.878     7.346E-22
  54694.949     7.389E-22
  54695.021     7.345E-22
  54695.093     7.288E-22
  54695.165     7.264E-22
  54695.237     7.194E-22
  54695.309     7.154E-22
  54695.381     7.050E-22
  54695.453     7.049E-22
  54695.525     7.027E-22
  54695.597     7.020E-22
  54695.669     7.062E-22
  54695.741     7.141E-22
  54695.813     7.268E-22
  54695.885     7.386E-22
  54695.957     7.492E-22
  54696.029     7.637E-22
  54696.101     7.807E-22
  54696.173     7.895E-22
  54696.245     8.057E-22
  54696.317     8.234E-22
  54696.389     8.448E-22
  54696.461     8.740E-22
  54696.533     9.060E-22
  54696.605     9.331E-22
  54696.677     9.564E-22
  54696.749     9.788E-22
  54696.821     9.884E-22
  54696.893     1.002E-21
  54696.965     1.021E-21
  54697.037     1.036E-21
  54697.109     1.046E-21
  54697.181     1.056E-21
  54697.253     1.070E-21
  54697.325     1.088E-21
  54697.397     1.106E-21
  54697.469     1.131E-21
  54697.541     1.161E-21
  54697.613     1.180E-21
  54697.685     1.208E-21
  54697.757     1.238E-21
  54697.829     1.263E-21
  54697.901     1.289E-21
  54697.973     1.320E-21
  54698.045     1.366E-21
  54698.117     1.405E-21
  54698.189     1.464E-21
  54698.261     1.528E-21
  54698.332     1.596E-21
  54698.404     1.651E-21
  54698.476     1.704E-21
  54698.548     1.747E-21
  54699.767     2.989E-21
  54699.974     3.531E-21
  54700.061     3.647E-21
  54700.148     4.191E-21
  54700.235     4.542E-21
  54700.322     4.833E-21
  54700.408     5.551E-21
  54700.495     6.620E-21
  54700.582     7.985E-21
  54700.669     9.594E-21
  54700.756     1.107E-20
  54700.843     1.257E-20
  54700.930     1.480E-20
  54701.012     1.814E-20
  54701.099     2.257E-20
  54701.200     2.763E-20
  54701.287     3.264E-20
  54701.374     3.716E-20
  54701.461     4.111E-20
  54701.548     4.434E-20
  54701.635     4.615E-20
  54701.722     4.630E-20
  54701.809     4.525E-20
  54701.896     4.335E-20
  54701.983     4.150E-20
  54702.069     4.083E-20
  54702.156     4.112E-20
  54702.243     4.168E-20
  54702.330     4.204E-20
  54702.417     4.242E-20
  54702.504     4.299E-20
  54702.591     4.320E-20
  54702.678     4.232E-20
  54702.765     4.072E-20
  54702.852     3.942E-20
  54702.924     3.856E-20
  54703.026     3.769E-20
  54703.098     3.634E-20
  54703.185     3.457E-20
  54703.286     3.253E-20
  54703.359     2.989E-20
  54703.446     2.682E-20
  54703.533     2.404E-20
  54703.620     2.164E-20
  54703.707     1.934E-20
  54703.794     1.707E-20
  54703.880     1.511E-20
  54703.972     1.351E-20
  54704.059     1.223E-20
  54704.146     1.107E-20
  54704.233     9.866E-21
  54704.320     8.684E-21
  54704.407     7.658E-21
  54704.494     6.899E-21
  54704.580     6.480E-21
  54704.667     6.289E-21
  54704.754     5.973E-21
  54704.841     5.434E-21
  54704.928     5.041E-21
  54705.015     4.813E-21
  54705.102     4.396E-21
  54705.189     3.812E-21
  54705.276     3.180E-21
  54705.363     2.595E-21
  54705.450     2.295E-21
  54705.537     2.467E-21
  54705.623     2.972E-21
  54705.710     3.637E-21
  54705.797     4.226E-21
  54705.884     4.590E-21
  54705.971     4.512E-21
  54706.058     4.074E-21
  54706.145     3.685E-21
  54706.232     3.726E-21
  54706.319     4.395E-21
  54706.406     5.400E-21
  54706.493     6.036E-21
  54706.580     6.288E-21
  54706.667     6.414E-21
  54706.753     6.271E-21
  54706.840     5.898E-21
  54706.927     5.518E-21
  54707.014     4.989E-21
  54707.101     4.179E-21
  54707.188     3.757E-21
  54707.275     3.736E-21
  54707.362     3.520E-21
  54707.449     3.096E-21
  54707.536     2.762E-21
  54707.623     2.574E-21
  54707.710     2.352E-21
  54707.796     2.166E-21
  54707.883     2.137E-21
  54707.970     2.415E-21
  54708.057     2.747E-21
  54708.144     2.563E-21
  54708.231     1.964E-21
  54708.318     1.661E-21
  54708.405     2.018E-21
  54708.492     2.882E-21
  54708.579     4.110E-21
  54708.666     5.493E-21
  54708.753     6.544E-21
  54708.840     7.050E-21
  54708.926     7.197E-21
  54709.013     7.320E-21
  54709.100     7.336E-21
  54709.187     6.858E-21
  54709.274     6.046E-21
  54709.361     5.390E-21
  54709.448     5.121E-21
  54709.535     5.163E-21
  54709.622     5.135E-21
  54709.709     4.415E-21
  54709.792     3.460E-21
  54709.873     2.769E-21
  54709.982     2.282E-21
  54710.063     1.976E-21
  54710.141     1.705E-21
  54710.216     1.512E-21
  54710.288     1.374E-21
  54710.644     1.169E-21
  54710.716     1.154E-21
  54710.788     1.147E-21
  54710.860     1.147E-21
  54710.932     1.149E-21
  54711.004     1.153E-21
  54711.076     1.154E-21
  54711.148     1.163E-21
  54711.220     1.177E-21
  54711.292     1.182E-21
  54711.364     1.188E-21
  54711.436     1.192E-21
  54711.508     1.196E-21
  54711.580     1.200E-21
  54711.652     1.222E-21
  54711.724     1.244E-21
  54711.796     1.263E-21
  54711.868     1.293E-21
  54711.940     1.323E-21
  54712.012     1.337E-21
  54712.084     1.355E-21
  54712.156     1.380E-21
  54712.228     1.401E-21
  54712.300     1.418E-21
  54712.372     1.428E-21
  54712.444     1.427E-21
  54712.516     1.422E-21
  54712.588     1.433E-21
  54712.660     1.452E-21
  54712.732     1.458E-21
  54712.804     1.451E-21
  54712.876     1.456E-21
  54712.948     1.471E-21
  54713.020     1.489E-21
  54713.092     1.502E-21
  54713.164     1.526E-21
  54713.236     1.548E-21
  54713.308     1.568E-21
  54713.380     1.590E-21
  54713.453     1.610E-21
  54713.525     1.638E-21
  54714.670     2.760E-21
  54715.547     4.342E-21
  54715.793     4.706E-21
  54715.880     5.202E-21
  54715.967     5.789E-21
  54716.054     6.593E-21
  54716.141     7.117E-21
  54716.228     7.429E-21
  54716.315     7.785E-21
  54716.402     8.062E-21
  54716.489     8.344E-21
  54716.576     8.973E-21
  54716.663     1.012E-20
  54716.750     1.199E-20
  54716.832     1.460E-20
  54716.919     1.754E-20
  54717.006     2.037E-20
  54717.093     2.318E-20
  54717.180     2.685E-20
  54717.281     3.190E-20
  54717.368     3.782E-20
  54717.455     4.407E-20
  54717.542     5.041E-20
  54717.629     5.719E-20
  54717.716     6.479E-20
  54717.807     7.213E-20
  54717.894     7.694E-20
  54717.981     7.920E-20
  54718.068     7.995E-20
  54718.155     7.996E-20
  54718.242     8.034E-20
  54718.329     8.112E-20
  54718.416     8.141E-20
  54718.503     8.043E-20
  54718.590     7.910E-20
  54718.677     7.768E-20
  54718.764     7.604E-20
  54718.850     7.375E-20
  54718.937     7.139E-20
  54719.024     6.880E-20
  54719.111     6.461E-20
  54719.198     5.938E-20
  54719.285     5.469E-20
  54719.367     5.059E-20
  54719.454     4.643E-20
  54719.541     4.229E-20
  54719.628     3.820E-20
  54719.715     3.405E-20
  54719.802     3.008E-20
  54719.874     2.674E-20
  54719.976     2.401E-20
  54720.048     2.123E-20
  54720.135     1.873E-20
  54720.227     1.708E-20
  54720.314     1.577E-20
  54720.401     1.409E-20
  54720.487     1.228E-20
  54720.574     1.099E-20
  54720.661     1.022E-20
  54720.748     9.571E-21
  54720.835     8.863E-21
  54720.922     8.177E-21
  54721.009     7.593E-21
  54721.096     7.182E-21
  54721.183     6.872E-21
  54721.270     6.356E-21
  54721.357     5.634E-21
  54721.444     5.099E-21
  54721.531     4.844E-21
  54721.618     4.614E-21
  54721.704     4.312E-21
  54721.791     4.120E-21
  54721.878     4.278E-21
  54721.965     4.587E-21
  54722.052     4.655E-21
  54722.139     4.523E-21
  54722.226     4.462E-21
  54722.313     4.743E-21
  54722.400     5.447E-21
  54722.487     6.303E-21
  54722.574     6.762E-21
  54722.661     6.379E-21
  54722.748     5.688E-21
  54722.835     5.469E-21
  54722.921     5.431E-21
  54723.008     5.269E-21
  54723.095     4.987E-21
  54723.182     4.572E-21
  54723.269     4.146E-21
  54723.356     3.473E-21
  54723.443     2.447E-21
  54723.530     1.848E-21
  54723.617     1.842E-21
  54723.704     1.911E-21
  54723.791     2.017E-21
  54723.878     2.481E-21
  54723.965     3.145E-21
  54724.052     3.532E-21
  54724.139     4.033E-21
  54724.225     4.585E-21
  54724.312     4.741E-21
  54724.399     4.928E-21
  54724.486     5.462E-21
  54724.573     6.132E-21
  54724.660     6.389E-21
  54724.747     6.145E-21
  54724.834     5.742E-21
  54724.921     5.366E-21
  54725.008     4.997E-21
  54725.095     4.537E-21
  54725.182     4.017E-21
  54725.269     3.201E-21
  54725.351     2.493E-21
  54725.428     2.032E-21
  54725.543     1.637E-21
  54725.623     1.374E-21
  54725.699     1.187E-21
  54726.130     9.301E-22
  54726.202     9.240E-22
  54726.274     9.184E-22
  54726.346     9.088E-22
  54726.418     9.004E-22
  54726.490     8.863E-22
  54726.562     8.697E-22
  54726.634     8.497E-22
  54726.707     8.315E-22
  54726.779     8.176E-22
  54726.851     7.996E-22
  54726.923     7.814E-22
  54726.995     7.653E-22
  54727.067     7.482E-22
  54727.139     7.361E-22
  54727.211     7.306E-22
  54727.283     7.196E-22
  54727.355     7.115E-22
  54727.428     7.008E-22
  54727.500     6.918E-22
  54727.572     6.794E-22
  54727.644     6.696E-22
  54727.716     6.652E-22
  54727.788     6.611E-22
  54727.860     6.573E-22
  54727.932     6.487E-22
  54728.005     6.440E-22
  54728.077     6.320E-22
  54728.150     6.257E-22
  54728.222     6.192E-22
  54728.294     6.174E-22
  54728.366     6.143E-22
  54728.438     6.114E-22
  54728.510     6.046E-22
  54728.583     5.988E-22
  54728.655     6.008E-22
  54728.727     5.941E-22
  54728.799     5.851E-22
  54728.871     5.821E-22
  54728.943     5.793E-22
  54729.015     5.781E-22
  54729.087     5.748E-22
  54729.159     5.690E-22
  54729.232     5.620E-22
  54729.304     5.606E-22
  54729.376     5.611E-22
  54729.448     5.646E-22
  54729.521     5.639E-22
  54729.593     5.582E-22
  54729.665     5.501E-22
  54729.737     5.515E-22
  54729.810     5.498E-22
  54729.882     5.446E-22
  54729.954     5.441E-22
  54730.026     5.431E-22
  54730.098     5.414E-22
  54730.170     5.336E-22
  54730.242     5.313E-22
  54730.314     5.313E-22
  54730.387     5.322E-22
  54730.459     5.281E-22
  54730.531     5.256E-22
  54730.603     5.247E-22
  54730.675     5.237E-22
  54730.747     5.255E-22
  54730.820     5.216E-22
  54730.892     5.161E-22
  54730.965     5.160E-22
  54731.037     5.149E-22
  54731.109     5.163E-22
  54731.181     5.207E-22
  54731.253     5.228E-22
  54731.325     5.315E-22
  54731.397     5.363E-22
  54731.469     5.397E-22
  54731.541     5.443E-22
  54731.614     5.432E-22
  54731.686     5.461E-22
  54731.758     5.501E-22
  54731.830     5.593E-22
  54731.902     5.676E-22
  54731.974     5.678E-22
  54732.047     5.606E-22
  54732.119     5.542E-22
  54732.192     5.537E-22
  54732.264     5.507E-22
  54732.336     5.482E-22
  54732.408     5.480E-22
  54732.480     5.494E-22
  54732.552     5.540E-22
  54732.624     5.614E-22
  54732.696     5.703E-22
  54732.769     5.786E-22
  54732.841     5.800E-22
  54732.913     5.888E-22
  54732.985     5.975E-22
  54733.057     6.128E-22
  54733.129     6.284E-22
  54733.202     6.391E-22
  54733.274     6.528E-22
  54733.346     6.703E-22
  54733.418     6.874E-22
  54733.490     7.055E-22
  54733.562     7.208E-22
  54733.634     7.350E-22
  54733.706     7.626E-22
  54733.778     7.920E-22
  54733.850     8.237E-22
  54733.922     8.591E-22
  54733.994     8.977E-22
  54734.066     9.407E-22
  54734.210     1.068E-21
  54734.286     1.254E-21
  54734.418     1.649E-21
  54734.493     1.962E-21
  54734.571     2.155E-21
  54734.654     2.538E-21
  54734.835     3.478E-21
  54734.918     4.392E-21
  54735.005     4.608E-21
  54735.092     4.363E-21
  54735.179     3.916E-21
  54735.266     3.368E-21
  54735.353     3.082E-21
  54735.440     3.275E-21
  54735.527     3.378E-21
  54735.614     2.983E-21
  54735.701     2.640E-21
  54735.788     2.542E-21
  54735.875     2.514E-21
  54735.962     2.686E-21
  54736.049     3.128E-21
  54736.135     3.496E-21
  54736.222     3.553E-21
  54736.309     3.427E-21
  54736.396     3.441E-21
  54736.483     3.828E-21
  54736.570     4.888E-21
  54736.657     6.294E-21
  54736.744     7.183E-21
  54736.831     7.160E-21
  54736.918     6.786E-21
  54737.005     6.634E-21
  54737.092     6.383E-21
  54737.179     5.686E-21
  54737.266     5.052E-21
  54737.353     4.946E-21
  54737.440     4.883E-21
  54737.526     4.530E-21
  54737.613     3.849E-21
  54737.700     3.159E-21
  54737.787     2.956E-21
  54737.874     3.078E-21
  54737.961     3.014E-21
  54738.048     2.828E-21
  54738.135     2.862E-21
  54738.222     3.016E-21
  54738.309     3.145E-21
  54738.396     3.158E-21
  54738.483     3.214E-21
  54738.570     3.690E-21
  54738.657     4.613E-21
  54738.744     5.344E-21
  54738.831     5.680E-21
  54738.918     5.958E-21
  54739.004     6.333E-21
  54739.091     6.622E-21
  54739.178     6.626E-21
  54739.265     6.440E-21
  54739.352     6.421E-21
  54739.439     6.173E-21
  54739.526     5.400E-21
  54739.613     4.638E-21
  54739.700     4.240E-21
  54739.787     3.995E-21
  54739.874     3.773E-21
  54739.961     3.476E-21
  54740.048     3.041E-21
  54740.133     2.726E-21
  54740.215     2.534E-21
  54740.318     2.167E-21
  54740.402     1.769E-21
  54740.481     1.439E-21
  54740.558     1.275E-21
  54740.632     1.129E-21
  54740.766     9.198E-22
  54740.841     8.502E-22
  54740.913     8.210E-22
  54740.985     7.996E-22
  54741.057     7.797E-22
  54741.129     7.632E-22
  54741.202     7.456E-22
  54741.274     7.296E-22
  54741.346     7.198E-22
  54741.418     7.074E-22
  54741.490     7.000E-22
  54741.562     6.896E-22
  54741.634     6.900E-22
  54741.706     6.884E-22
  54741.778     6.850E-22
  54741.850     6.832E-22
  54741.922     6.696E-22
  54741.994     6.671E-22
  54742.067     6.724E-22
  54742.139     6.743E-22
  54742.211     6.863E-22
  54742.283     6.929E-22
  54742.355     6.900E-22
  54742.427     6.810E-22
  54742.499     6.667E-22
  54742.571     6.509E-22
  54742.643     6.301E-22
  54742.715     6.134E-22
  54742.787     5.921E-22
  54742.859     5.766E-22
  54742.932     5.659E-22
  54743.004     5.541E-22
  54743.076     5.415E-22
  54743.148     5.333E-22
  54743.220     5.408E-22
  54743.292     5.443E-22
  54743.364     5.505E-22
  54743.436     5.648E-22
  54743.508     5.818E-22
  54743.580     6.000E-22
  54743.652     6.245E-22
  54743.724     6.669E-22
  54743.797     7.352E-22
  54743.869     8.323E-22
  54743.941     9.433E-22
  54744.013     1.080E-21
  54744.085     1.216E-21
  54744.157     1.358E-21
  54744.229     1.466E-21
  54744.301     1.537E-21
  54744.373     1.515E-21
  54744.445     1.430E-21
  54744.517     1.324E-21
  54744.590     1.209E-21
  54744.662     1.103E-21
  54744.734     1.022E-21
  54744.806     9.580E-22
  54744.878     9.106E-22
  54744.950     8.935E-22
  54745.022     8.952E-22
  54745.094     9.253E-22
  54745.166     9.812E-22
  54745.238     1.065E-21
  54745.310     1.167E-21
  54745.383     1.267E-21
  54745.455     1.373E-21
  54745.527     1.452E-21
  54745.599     1.497E-21
  54745.671     1.488E-21
  54745.743     1.391E-21
  54745.815     1.271E-21
  54745.887     1.144E-21
  54745.959     1.026E-21
  54746.031     9.311E-22
  54746.103     8.500E-22
  54746.176     7.788E-22
  54746.248     7.278E-22
  54746.320     6.939E-22
  54746.392     6.757E-22
  54746.464     6.711E-22
  54746.536     6.846E-22
  54746.608     7.145E-22
  54746.680     7.627E-22
  54746.752     8.275E-22
  54746.824     8.963E-22
  54746.896     9.495E-22
  54746.969     9.780E-22
  54747.041     9.798E-22
  54747.113     9.533E-22
  54747.185     9.042E-22
  54747.257     8.517E-22
  54747.329     7.896E-22
  54747.401     7.307E-22
  54747.473     6.829E-22
  54747.545     6.455E-22
  54747.617     6.117E-22
  54747.690     5.918E-22
  54747.762     5.760E-22
  54747.834     5.687E-22
  54747.906     5.715E-22
  54747.978     5.673E-22
  54748.050     5.718E-22
  54748.122     5.829E-22
  54748.194     5.966E-22
  54748.338     6.415E-22
  54748.408     7.978E-22
  54748.482     1.098E-21
  54748.561     1.408E-21
  54748.643     1.655E-21
  54748.750     2.112E-21
  54748.831     2.793E-21
  54748.916     3.464E-21
  54749.003     3.468E-21
  54749.090     3.265E-21
  54749.177     3.152E-21
  54749.264     3.211E-21
  54749.351     3.279E-21
  54749.438     2.980E-21
  54749.525     2.371E-21
  54749.612     2.124E-21
  54749.699     2.310E-21
  54749.785     2.098E-21
  54749.872     1.470E-21
  54750.046     1.282E-21
  54750.133     1.557E-21
  54750.220     1.733E-21
  54750.307     1.801E-21
  54750.394     1.896E-21
  54750.481     2.225E-21
  54750.568     2.929E-21
  54750.655     3.827E-21
  54750.742     4.477E-21
  54750.829     4.736E-21
  54750.916     4.705E-21
  54751.003     4.436E-21
  54751.090     4.047E-21
  54751.177     3.789E-21
  54751.264     3.665E-21
  54751.353     3.279E-21
  54751.437     2.948E-21
  54751.520     2.513E-21
  54751.599     1.899E-21
  54751.714     1.382E-21
  54751.794     1.201E-21
  54751.871     1.084E-21
  54751.945     9.250E-22
  54752.016     7.935E-22
  54752.088     7.852E-22
  54752.160     7.697E-22
  54752.232     7.655E-22
  54752.304     7.695E-22
  54752.376     7.799E-22
  54752.448     8.057E-22
  54752.520     8.322E-22
  54752.592     8.691E-22
  54752.665     9.108E-22
  54752.737     9.471E-22
  54752.809     9.957E-22
  54752.881     1.037E-21
  54752.953     1.075E-21
  54753.025     1.113E-21
  54753.097     1.142E-21
  54753.169     1.160E-21
  54753.241     1.168E-21
  54753.314     1.171E-21
  54753.386     1.160E-21
  54753.458     1.139E-21
  54753.530     1.108E-21
  54753.602     1.078E-21
  54753.674     1.049E-21
  54753.746     1.022E-21
  54753.818     9.956E-22
  54753.890     9.828E-22
  54753.963     9.860E-22
  54754.035     1.007E-21
  54754.107     1.043E-21
  54754.179     1.087E-21
  54754.251     1.134E-21
  54754.323     1.171E-21
  54754.395     1.187E-21
  54754.467     1.189E-21
  54754.539     1.173E-21
  54754.612     1.139E-21
  54754.684     1.090E-21
  54754.756     1.041E-21
  54754.828     9.948E-22
  54754.900     9.580E-22
  54754.972     9.285E-22
  54755.044     9.171E-22
  54755.116     9.060E-22
  54755.188     9.021E-22
  54755.261     9.020E-22
  54755.333     9.169E-22
  54755.405     9.299E-22
  54755.477     9.428E-22
  54755.549     9.698E-22
  54755.621     9.973E-22
  54755.693     1.028E-21
  54755.765     1.072E-21
  54755.837     1.111E-21
  54755.910     1.147E-21
  54755.982     1.175E-21
  54756.054     1.188E-21
  54756.126     1.185E-21
  54756.198     1.181E-21
  54756.270     1.177E-21
  54756.342     1.166E-21
  54756.414     1.149E-21
  54756.487     1.138E-21
  54756.559     1.131E-21
  54756.631     1.133E-21
  54756.703     1.146E-21
  54756.775     1.171E-21
  54756.847     1.196E-21
  54756.919     1.229E-21
  54756.991     1.275E-21
  54757.063     1.332E-21
  54757.136     1.403E-21
  54757.208     1.467E-21
  54757.280     1.503E-21
  54757.352     1.521E-21
  54757.424     1.527E-21
  54757.496     1.520E-21
  54757.568     1.499E-21
  54757.640     1.474E-21
  54757.713     1.430E-21
  54757.785     1.394E-21
  54757.857     1.364E-21
  54757.929     1.348E-21
  54758.001     1.326E-21
  54758.073     1.298E-21
  54758.145     1.278E-21
  54758.217     1.267E-21
  54758.289     1.241E-21
  54758.362     1.233E-21
  54758.434     1.235E-21
  54758.506     1.235E-21
  54758.578     1.236E-21
  54758.650     1.248E-21
  54758.724     1.375E-21
  54758.803     1.560E-21
  54758.930     1.864E-21
  54759.007     2.430E-21
  54759.087     3.099E-21
  54759.171     3.553E-21
  54759.258     3.881E-21
  54759.350     4.582E-21
  54759.437     5.241E-21
  54759.524     5.497E-21
  54759.611     5.185E-21
  54759.698     4.538E-21
  54759.785     4.034E-21
  54759.872     3.606E-21
  54759.959     2.790E-21
  54760.046     1.688E-21
  54760.237     1.598E-21
  54760.309     1.542E-21
  54760.381     1.504E-21
  54760.453     1.496E-21
  54760.525     1.503E-21
  54760.597     1.523E-21
  54760.667     1.673E-21
  54760.742     1.703E-21
  54760.821     1.792E-21
  54760.905     2.102E-21
  54761.007     2.691E-21
  54761.176     3.935E-21
  54761.263     4.383E-21
  54761.350     5.012E-21
  54761.437     5.793E-21
  54761.524     6.358E-21
  54761.611     6.590E-21
  54761.698     6.511E-21
  54761.785     6.452E-21
  54761.872     6.543E-21
  54761.959     6.578E-21
  54762.045     6.073E-21
  54762.132     4.946E-21
  54762.219     3.888E-21
  54762.306     3.589E-21
  54762.393     3.605E-21
  54762.480     3.408E-21
  54762.567     3.230E-21
  54762.654     3.110E-21
  54762.741     2.900E-21
  54762.828     2.948E-21
  54762.915     3.414E-21
  54763.002     3.748E-21
  54763.089     3.842E-21
  54763.176     4.047E-21
  54763.263     4.111E-21
  54763.350     4.326E-21
  54763.437     4.421E-21
  54763.524     4.616E-21
  54763.611     4.797E-21
  54763.698     4.868E-21
  54763.785     4.935E-21
  54763.872     5.014E-21
  54763.959     5.177E-21
  54764.045     5.303E-21
  54764.132     5.934E-21
  54764.219     6.302E-21
  54764.306     6.799E-21
  54764.393     7.433E-21
  54764.480     8.149E-21
  54764.567     9.290E-21
  54764.654     1.080E-20
  54764.741     1.227E-20
  54764.828     1.360E-20
  54764.911     1.502E-20
  54764.998     1.667E-20
  54765.084     1.887E-20
  54765.171     2.198E-20
  54765.258     2.635E-20
  54765.345     3.209E-20
  54765.432     3.829E-20
  54765.534     4.422E-20
  54765.621     5.027E-20
  54765.713     5.716E-20
  54765.800     6.448E-20
  54765.887     6.998E-20
  54765.974     7.334E-20
  54766.061     7.606E-20
  54766.147     7.830E-20
  54766.234     7.878E-20
  54766.321     7.774E-20
  54766.408     7.689E-20
  54766.495     7.704E-20
  54766.582     7.877E-20
  54766.669     8.121E-20
  54766.756     8.268E-20
  54766.843     8.171E-20
  54766.930     7.941E-20
  54767.017     7.728E-20
  54767.104     7.516E-20
  54767.191     7.236E-20
  54767.278     6.904E-20
  54767.365     6.574E-20
  54767.452     6.175E-20
  54767.534     5.660E-20
  54767.621     5.180E-20
  54767.708     4.791E-20
  54767.795     4.410E-20
  54767.882     4.016E-20
  54767.969     3.671E-20
  54768.056     3.369E-20
  54768.143     3.053E-20
  54768.229     2.717E-20
  54768.302     2.426E-20
  54768.389     2.227E-20
  54768.476     2.080E-20
  54768.563     1.924E-20
  54768.654     1.778E-20
  54768.741     1.684E-20
  54768.824     1.618E-20
  54768.911     1.549E-20
  54769.002     1.483E-20
  54769.085     1.424E-20
  54769.176     1.363E-20
  54769.263     1.343E-20
  54769.345     1.340E-20
  54769.437     1.308E-20
  54769.524     1.255E-20
  54769.611     1.164E-20
  54769.698     1.068E-20
  54769.785     9.934E-21
  54769.872     9.271E-21
  54769.959     8.702E-21
  54770.046     8.119E-21
  54770.132     7.780E-21
  54770.219     7.841E-21
  54770.306     8.178E-21
  54770.393     8.299E-21
  54770.480     8.107E-21
  54770.567     7.648E-21
  54770.654     7.022E-21
  54770.741     6.217E-21
  54770.828     5.249E-21
  54770.915     4.842E-21
  54771.002     4.306E-21
  54771.089     4.058E-21
  54771.176     3.659E-21
  54771.346     3.288E-21
  54771.418     3.178E-21
  54771.490     3.172E-21
  54771.562     3.168E-21
  54771.635     3.134E-21
  54771.707     3.150E-21
  54771.779     3.190E-21
  54771.851     3.174E-21
  54771.923     3.203E-21
  54771.995     3.330E-21
  54772.068     3.465E-21
  54772.140     3.545E-21
  54772.212     3.601E-21
  54772.284     3.590E-21
  54772.356     3.446E-21
  54772.428     3.277E-21
  54772.500     3.124E-21
  54772.573     3.014E-21
  54772.645     2.860E-21
  54772.717     2.736E-21
  54772.789     2.657E-21
  54772.861     2.603E-21
  54772.933     2.531E-21
  54773.006     2.501E-21
  54773.078     2.459E-21
  54773.150     2.433E-21
  54773.222     2.426E-21
  54773.294     2.401E-21
  54773.366     2.399E-21
  54773.438     2.404E-21
  54773.511     2.400E-21
  54773.583     2.396E-21
  54773.655     2.399E-21
  54773.727     2.404E-21
  54773.799     2.438E-21
  54773.871     2.502E-21
  54773.944     2.570E-21
  54774.016     2.666E-21
  54774.088     2.802E-21
  54774.160     3.049E-21
  54774.232     3.233E-21
  54774.307     4.665E-21
  54774.394     5.396E-21
  54774.481     5.936E-21
  54774.568     5.922E-21
  54774.654     5.740E-21
  54774.741     5.729E-21
  54774.828     5.480E-21
  54774.915     4.711E-21
  54775.029     4.127E-21
  54775.117     4.042E-21
  54775.204     3.796E-21
  54775.291     3.594E-21
  54775.378     3.283E-21
  54775.466     3.161E-21
  54775.553     3.239E-21
  54775.640     3.000E-21
  54775.727     2.605E-21
  54775.815     2.525E-21
  54775.902     2.831E-21
  54775.989     3.275E-21
  54776.077     3.579E-21
  54776.164     3.639E-21
  54776.251     3.835E-21
  54776.338     4.894E-21
  54776.426     6.453E-21
  54776.513     7.796E-21
  54776.600     8.456E-21
  54776.687     7.941E-21
  54776.775     6.758E-21
  54776.862     5.775E-21
  54776.949     5.324E-21
  54777.036     4.812E-21
  54777.124     4.652E-21
  54777.211     4.517E-21
  54777.298     4.483E-21
  54777.385     4.615E-21
  54777.473     4.824E-21
  54777.560     5.196E-21
  54777.647     5.538E-21
  54777.735     5.881E-21
  54777.822     6.194E-21
  54777.909     6.347E-21
  54777.996     6.509E-21
  54778.084     6.794E-21
  54778.171     7.172E-21
  54778.258     7.863E-21
  54778.345     9.765E-21
  54778.433     1.093E-20
  54778.520     1.100E-20
  54778.607     1.096E-20
  54778.694     1.139E-20
  54778.782     1.239E-20
  54778.869     1.388E-20
  54778.956     1.536E-20
  54779.044     1.673E-20
  54779.131     1.806E-20
  54779.218     2.002E-20
  54779.337     2.334E-20
  54779.424     2.746E-20
  54779.511     3.175E-20
  54779.599     3.635E-20
  54779.690     4.162E-20
  54779.777     4.815E-20
  54779.865     5.644E-20
  54779.952     6.614E-20
  54780.039     7.742E-20
  54780.144     9.085E-20
  54780.228     1.039E-19
  54780.316     1.137E-19
  54780.403     1.207E-19
  54780.490     1.246E-19
  54780.578     1.251E-19
  54780.659     1.252E-19
  54780.752     1.274E-19
  54780.839     1.301E-19
  54780.927     1.304E-19
  54781.014     1.278E-19
  54781.101     1.249E-19
  54781.188     1.235E-19
  54781.276     1.220E-19
  54781.363     1.193E-19
  54781.450     1.134E-19
  54781.538     1.049E-19
  54781.625     9.609E-20
  54781.712     8.763E-20
  54781.803     7.897E-20
  54781.890     7.016E-20
  54781.959     6.178E-20
  54782.047     5.538E-20
  54782.134     5.017E-20
  54782.217     4.486E-20
  54782.309     3.936E-20
  54782.392     3.395E-20
  54782.479     2.979E-20
  54782.566     2.729E-20
  54782.622     2.501E-20
  54782.709     2.226E-20
  54782.797     2.050E-20
  54782.915     1.996E-20
  54782.971     1.917E-20
  54783.058     1.764E-20
  54783.146     1.559E-20
  54783.233     1.350E-20
  54783.320     1.221E-20
  54783.408     1.174E-20
  54784.040     1.008E-20
  54784.920     4.918E-21
  54785.202     3.455E-21
  54785.274     3.388E-21
  54785.346     3.295E-21
  54785.419     3.211E-21
  54785.491     3.157E-21
  54785.563     3.121E-21
  54785.635     3.079E-21
  54785.707     3.089E-21
  54785.779     3.035E-21
  54785.852     2.965E-21
  54785.924     2.964E-21
  54785.996     2.899E-21
  54786.068     2.783E-21
  54786.140     2.716E-21
  54786.213     2.725E-21
  54786.285     2.708E-21
  54786.357     2.695E-21
  54786.429     2.679E-21
  54786.501     2.665E-21
  54786.574     2.657E-21
  54786.646     2.676E-21
  54786.718     2.666E-21
  54786.790     2.634E-21
  54786.862     2.595E-21
  54786.934     2.533E-21
  54787.007     2.515E-21
  54787.079     2.440E-21
  54787.151     2.355E-21
  54787.223     2.257E-21
  54787.295     2.163E-21
  54787.368     2.092E-21
  54787.440     2.004E-21
  54787.512     1.929E-21
  54787.584     1.858E-21
  54787.656     1.798E-21
  54787.729     1.758E-21
  54787.801     1.686E-21
  54787.873     1.635E-21
  54787.945     1.588E-21
  54788.017     1.538E-21
  54788.089     1.496E-21
  54788.162     1.465E-21
  54788.234     1.422E-21
  54788.306     1.394E-21
  54788.378     1.366E-21
  54788.450     1.342E-21
  54788.523     1.316E-21
  54788.595     1.292E-21
  54788.667     1.268E-21
  54788.739     1.256E-21
  54788.811     1.241E-21
  54788.884     1.224E-21
  54788.956     1.217E-21
  54789.028     1.197E-21
  54789.100     1.190E-21
  54789.172     1.170E-21
  54789.245     1.156E-21
  54789.317     1.139E-21
  54789.389     1.128E-21
  54789.461     1.109E-21
  54789.533     1.079E-21
  54789.605     1.060E-21
  54789.678     1.043E-21
  54789.750     1.031E-21
  54789.822     1.014E-21
  54789.894     1.000E-21
  54789.966     9.941E-22
  54790.039     9.853E-22
  54790.111     9.682E-22
  54790.183     9.571E-22
  54790.255     9.422E-22
  54790.327     9.327E-22
  54790.400     9.228E-22
  54790.472     9.205E-22
  54790.544     9.311E-22
  54790.616     9.467E-22
  54790.688     9.549E-22
  54790.761     9.693E-22
  54790.833     9.711E-22
  54790.905     9.669E-22
  54790.977     9.560E-22
  54791.049     9.438E-22
  54791.122     9.282E-22
  54791.194     9.192E-22
  54791.266     9.061E-22
  54791.338     8.926E-22
  54791.410     8.784E-22
  54791.483     8.635E-22
  54791.555     8.515E-22
  54791.627     8.454E-22
  54791.699     8.373E-22
  54791.771     8.237E-22
  54791.844     8.147E-22
  54791.916     8.098E-22
  54791.988     8.029E-22
  54792.060     7.954E-22
  54792.132     7.833E-22
  54792.205     7.723E-22
  54792.276     7.656E-22
  54792.348     7.613E-22
  54792.420     7.513E-22
  54792.492     7.487E-22
  54792.564     7.448E-22
  54792.636     7.377E-22
  54792.708     7.301E-22
  54792.780     7.240E-22
  54792.852     7.160E-22
  54792.924     7.065E-22
  54792.996     7.039E-22
  54793.068     6.995E-22
  54793.140     7.004E-22
  54793.212     6.980E-22
  54793.284     7.027E-22
  54793.356     7.046E-22
  54793.428     7.049E-22
  54793.500     7.120E-22
  54793.572     7.255E-22
  54793.644     7.455E-22
  54793.716     7.750E-22
  54793.788     8.050E-22
  54793.860     8.299E-22
  54793.932     8.473E-22
  54794.004     8.590E-22
  54794.076     8.619E-22
  54794.148     8.551E-22
  54794.219     8.413E-22
  54794.292     8.240E-22
  54794.364     8.083E-22
  54794.436     7.940E-22
  54794.508     7.829E-22
  54794.579     7.753E-22
  54794.652     7.721E-22
  54794.724     7.707E-22
  54794.796     7.666E-22
  54794.868     7.680E-22
  54794.939     7.783E-22
  54795.012     7.930E-22
  54795.084     8.060E-22
  54795.156     8.203E-22
  54795.227     8.348E-22
  54795.299     8.546E-22
  54795.372     8.704E-22
  54795.444     8.832E-22
  54795.516     8.943E-22
  54795.587     9.029E-22
  54795.659     9.101E-22
  54795.732     9.160E-22
  54795.804     9.197E-22
  54795.876     9.259E-22
  54795.947     9.256E-22
  54796.019     9.174E-22
  54796.092     9.105E-22
  54796.164     9.033E-22
  54796.235     8.923E-22
  54796.307     8.800E-22
  54796.380     8.705E-22
  54796.452     8.519E-22
  54796.524     8.372E-22
  54796.595     8.185E-22
  54796.667     7.994E-22
  54796.740     7.829E-22
  54796.812     7.684E-22
  54796.883     7.570E-22
  54796.955     7.412E-22
  54797.027     7.293E-22
  54797.100     7.159E-22
  54797.172     7.011E-22
  54797.243     6.892E-22
  54797.315     6.803E-22
  54797.387     6.730E-22
  54797.460     6.693E-22
  54797.532     6.627E-22
  54797.603     6.541E-22
  54797.675     6.537E-22
  54797.748     6.522E-22
  54797.820     6.449E-22
  54797.891     6.315E-22
  54797.963     6.248E-22
  54798.169     7.887E-22
  54798.252     8.428E-22
  54798.339     1.056E-21
  54798.426     1.104E-21
  54798.601     1.128E-21
  54798.776     1.543E-21
  54798.863     1.860E-21
  54798.951     2.062E-21
  54799.125     2.482E-21
  54799.213     3.174E-21
  54799.300     3.507E-21
  54799.387     3.099E-21
  54799.475     2.395E-21
  54799.562     1.755E-21
  54799.696     1.433E-21
  54799.769     1.281E-21
  54799.841     1.155E-21
  54799.913     1.041E-21
  54799.985     9.537E-22
  54800.057     8.904E-22
  54800.130     8.355E-22
  54800.202     7.848E-22
  54800.274     7.451E-22
  54800.346     7.066E-22
  54800.418     6.756E-22
  54800.491     6.487E-22
  54800.563     6.214E-22
  54800.635     6.047E-22
  54800.707     5.944E-22
  54800.780     5.895E-22
  54800.852     5.872E-22
  54800.924     5.804E-22
  54800.996     5.693E-22
  54801.068     5.607E-22
  54801.141     5.617E-22
  54801.213     5.564E-22
  54801.285     5.581E-22
  54801.357     5.609E-22
  54801.430     5.662E-22
  54801.502     5.691E-22
  54801.574     5.744E-22
  54801.646     5.819E-22
  54801.718     5.820E-22
  54801.791     5.917E-22
  54801.863     6.002E-22
  54801.935     6.033E-22
  54802.007     6.162E-22
  54802.080     6.291E-22
  54802.152     6.408E-22
  54802.585     8.334E-22
  54802.800     1.173E-21
  54802.878     1.496E-21
  54802.963     1.878E-21
  54803.056     2.600E-21
  54803.144     3.178E-21
  54803.231     3.696E-21
  54803.318     3.718E-21
  54803.406     2.844E-21
  54803.493     1.980E-21
  54803.581     1.995E-21
  54803.668     2.508E-21
  54803.755     2.419E-21
  54803.843     1.814E-21
  54803.930     1.828E-21
  54804.017     2.471E-21
  54804.105     2.729E-21
  54804.192     2.282E-21
  54804.280     1.633E-21
  54804.367     1.508E-21
  54804.454     1.800E-21
  54804.542     1.772E-21
  54804.629     1.746E-21
  54804.716     1.622E-21
  54804.804     1.124E-21
  54804.892     1.277E-21
  54804.975     1.198E-21
  54805.051     1.070E-21
  54805.190     8.205E-22
  54805.546     6.724E-22
  54805.619     6.700E-22
  54805.691     6.624E-22
  54805.763     6.574E-22
  54805.835     6.596E-22
  54805.908     6.682E-22
  54805.980     6.743E-22
  54806.052     6.788E-22
  54806.124     6.854E-22
  54806.196     6.875E-22
  54806.269     6.951E-22
  54806.341     6.977E-22
  54806.413     7.011E-22
  54806.485     7.014E-22
  54806.558     7.086E-22
  54806.630     7.202E-22
  54806.702     7.345E-22
  54806.774     7.463E-22
  54806.847     7.615E-22
  54806.919     7.768E-22
  54806.991     7.883E-22
  54807.063     8.098E-22
  54807.135     8.340E-22
  54807.208     8.597E-22
  54807.280     8.876E-22
  54807.352     9.214E-22
  54807.424     9.626E-22
  54807.497     1.014E-21
  54807.569     1.050E-21
  54807.641     1.081E-21
  54807.713     1.099E-21
  54807.786     1.110E-21
  54807.858     1.111E-21
  54807.930     1.112E-21
  54808.002     1.101E-21
  54808.074     1.071E-21
  54808.147     1.043E-21
  54808.219     1.013E-21
  54808.291     9.895E-22
  54808.363     9.714E-22
  54808.436     9.528E-22
  54808.508     9.333E-22
  54808.580     9.116E-22
  54808.652     8.905E-22
  54808.725     8.689E-22
  54808.797     8.399E-22
  54808.869     8.214E-22
  54808.941     8.085E-22
  54809.014     7.942E-22
  54809.086     7.837E-22
  54809.158     7.745E-22
  54809.230     7.671E-22
  54809.303     7.540E-22
  54809.375     7.415E-22
  54809.447     7.321E-22
  54809.519     7.223E-22
  54809.591     7.117E-22
  54809.664     7.014E-22
  54809.736     6.931E-22
  54809.808     6.900E-22
  54809.880     6.861E-22
  54809.953     6.852E-22
  54810.025     6.928E-22
  54810.097     6.998E-22
  54810.169     7.071E-22
  54810.242     7.058E-22
  54810.314     7.067E-22
  54810.386     7.110E-22
  54810.458     7.204E-22
  54810.531     7.252E-22
  54810.603     7.291E-22
  54810.675     7.298E-22
  54810.747     7.311E-22
  54810.820     7.307E-22
  54810.892     7.222E-22
  54810.964     7.187E-22
  54811.036     7.178E-22
  54811.109     7.155E-22
  54811.181     7.228E-22
  54811.253     7.293E-22
  54811.325     7.315E-22
  54811.398     7.272E-22
  54811.470     7.238E-22
  54811.542     7.221E-22
  54811.614     7.289E-22
  54811.686     7.400E-22
  54811.759     7.473E-22
  54811.831     7.615E-22
  54811.903     7.852E-22
  54811.975     8.187E-22
  54812.048     8.472E-22
  54812.120     8.767E-22
  54812.192     9.051E-22
  54812.264     9.326E-22
  54812.337     9.592E-22
  54812.409     9.732E-22
  54812.481     9.745E-22
  54812.553     9.658E-22
  54812.626     9.506E-22
  54812.698     9.376E-22
  54812.770     9.219E-22
  54812.842     9.090E-22
  54812.915     8.991E-22
  54812.987     8.833E-22
  54813.059     8.628E-22
  54813.131     8.487E-22
  54813.204     8.473E-22
  54813.276     8.515E-22
  54813.348     8.631E-22
  54813.420     8.702E-22
  54813.493     8.738E-22
  54813.565     8.775E-22
  54813.637     8.939E-22
  54813.709     9.125E-22
  54813.782     9.246E-22
  54813.854     9.354E-22
  54813.926     9.526E-22
  54813.998     9.619E-22
  54814.071     9.611E-22
  54814.143     9.601E-22
  54814.215     9.580E-22
  54814.287     9.629E-22
  54814.360     9.763E-22
  54814.432     9.871E-22
  54814.504     9.906E-22
  54814.576     1.001E-21
  54814.649     1.011E-21
  54814.721     1.019E-21
  54814.793     1.025E-21
  54814.865     1.043E-21
  54814.938     1.060E-21
  54815.010     1.085E-21
  54815.082     1.112E-21
  54815.154     1.127E-21
  54815.227     1.131E-21
  54815.299     1.139E-21
  54815.371     1.162E-21
  54815.443     1.179E-21
  54815.516     1.203E-21
  54815.588     1.228E-21
  54815.660     1.253E-21
  54815.732     1.282E-21
  54815.805     1.321E-21
  54815.877     1.360E-21
  54815.949     1.395E-21
  54816.021     1.424E-21
  54816.094     1.462E-21
  54816.166     1.513E-21
  54816.238     1.560E-21
  54816.310     1.599E-21
  54816.383     1.629E-21
  54816.455     1.656E-21
  54816.527     1.687E-21
  54816.599     1.701E-21
  54816.672     1.722E-21
  54816.744     1.740E-21
  54816.816     1.740E-21
  54816.888     1.741E-21
  54816.961     1.751E-21
  54817.033     1.759E-21
  54817.105     1.764E-21
  54817.177     1.767E-21
  54817.250     1.758E-21
  54817.322     1.736E-21
  54817.394     1.740E-21
  54817.467     1.739E-21
  54817.539     1.755E-21
  54817.611     1.753E-21
  54817.683     1.758E-21
  54817.756     1.763E-21
  54817.828     1.777E-21
  54817.900     1.768E-21
  54817.972     1.771E-21
  54818.045     1.782E-21
  54818.117     1.798E-21
  54818.189     1.797E-21
  54818.261     1.784E-21
  54818.334     1.806E-21
  54818.406     1.825E-21
  54818.478     1.848E-21
  54818.550     1.870E-21
  54818.623     1.878E-21
  54818.695     1.888E-21
  54818.767     1.906E-21
  54818.839     1.922E-21
  54818.912     1.960E-21
  54818.984     2.001E-21
  54819.056     2.042E-21
  54819.128     2.086E-21
  54819.201     2.098E-21
  54819.273     2.130E-21
  54819.345     2.185E-21
  54819.418     2.232E-21
  54819.490     2.288E-21
  54819.562     2.357E-21
  54819.634     2.391E-21
  54819.707     2.432E-21
  54819.779     2.495E-21
  54819.851     2.525E-21
  54819.923     2.570E-21
  54819.996     2.640E-21
  54820.068     2.713E-21
  54820.140     2.797E-21
  54820.212     2.892E-21
  54820.285     3.036E-21
  54820.357     3.150E-21
  54820.429     3.175E-21
  54820.501     3.230E-21
  54820.574     3.343E-21
  54820.646     3.427E-21
  54820.718     3.546E-21
  54821.029     4.825E-21
  54821.897     7.136E-21
  54822.023     1.322E-20
  54822.110     1.378E-20
  54822.198     1.408E-20
  54822.285     1.413E-20
  54822.373     1.485E-20
  54822.460     1.697E-20
  54822.548     1.985E-20
  54822.667     2.222E-20
  54822.754     2.417E-20
  54822.841     2.698E-20
  54822.929     3.168E-20
  54823.016     3.794E-20
  54823.108     4.551E-20
  54823.196     5.499E-20
  54823.283     6.647E-20
  54823.372     7.949E-20
  54823.472     9.326E-20
  54823.560     1.057E-19
  54823.647     1.145E-19
  54823.735     1.190E-19
  54823.822     1.205E-19
  54823.910     1.205E-19
  54823.997     1.196E-19
  54824.085     1.200E-19
  54824.172     1.215E-19
  54824.259     1.209E-19
  54824.347     1.193E-19
  54824.434     1.194E-19
  54824.522     1.190E-19
  54824.609     1.159E-19
  54824.697     1.133E-19
  54824.784     1.115E-19
  54824.872     1.081E-19
  54824.959     1.039E-19
  54825.047     9.960E-20
  54825.137     9.477E-20
  54825.221     8.885E-20
  54825.312     8.237E-20
  54825.396     7.603E-20
  54825.487     6.899E-20
  54825.557     6.090E-20
  54825.644     5.344E-20
  54825.732     4.756E-20
  54825.819     4.272E-20
  54825.906     3.806E-20
  54825.990     3.402E-20
  54826.077     3.156E-20
  54826.165     2.986E-20
  54826.252     2.806E-20
  54826.340     2.600E-20
  54826.396     2.368E-20
  54826.483     2.178E-20
  54826.570     2.010E-20
  54826.658     1.808E-20
  54826.745     1.650E-20
  54826.833     1.559E-20
  54826.920     1.431E-20
  54827.008     1.298E-20
  54827.095     1.231E-20
  54827.183     1.194E-20
  54827.270     1.159E-20
  54827.358     1.136E-20
  54827.445     1.127E-20
  54827.533     1.088E-20
  54827.620     1.015E-20
  54827.707     9.580E-21
  54827.795     9.659E-21
  54827.882     1.001E-20
  54827.970     1.004E-20
  54828.057     9.870E-21
  54828.145     9.414E-21
  54828.232     8.571E-21
  54828.320     7.704E-21
  54828.407     6.946E-21
  54828.495     6.471E-21
  54828.582     6.368E-21
  54828.670     6.426E-21
  54828.757     6.378E-21
  54828.845     6.409E-21
  54828.932     6.615E-21
  54829.019     6.539E-21
  54829.107     6.152E-21
  54829.194     6.227E-21
  54829.282     6.797E-21
  54829.369     7.299E-21
  54829.457     7.648E-21
  54829.544     8.174E-21
  54829.632     8.803E-21
  54829.719     9.096E-21
  54829.807     9.012E-21
  54829.894     9.232E-21
  54829.982     1.012E-20
  54830.069     1.087E-20
  54830.157     1.072E-20
  54830.244     9.981E-21
  54830.332     9.469E-21
  54830.419     9.390E-21
  54830.506     9.200E-21
  54830.594     9.066E-21
  54830.681     9.353E-21
  54830.769     9.788E-21
  54830.856     9.746E-21
  54830.944     9.189E-21
  54831.031     8.589E-21
  54831.119     8.175E-21
  54831.206     8.436E-21
  54831.294     8.933E-21
  54831.381     8.711E-21
  54831.469     8.263E-21
  54831.556     8.365E-21
  54831.644     8.775E-21
  54831.731     8.963E-21
  54831.819     9.041E-21
  54831.906     9.370E-21
  54831.994     9.678E-21
  54832.081     9.833E-21
  54832.169     1.014E-20
  54832.256     1.052E-20
  54832.344     1.063E-20
  54832.431     1.040E-20
  54832.519     1.019E-20
  54832.606     1.010E-20
  54832.693     1.010E-20
  54832.781     1.033E-20
  54832.868     1.069E-20
  54832.956     1.084E-20
  54833.043     1.091E-20
  54833.131     1.144E-20
  54833.218     1.211E-20
  54833.306     1.216E-20
  54833.393     1.164E-20
  54833.481     1.089E-20
  54833.568     1.020E-20
  54833.656     9.995E-21
  54833.743     1.010E-20
  54833.831     1.009E-20
  54833.918     1.005E-20
  54834.006     1.002E-20
  54834.093     1.015E-20
  54834.181     1.069E-20
  54834.268     1.184E-20
  54834.356     1.272E-20
  54834.443     1.284E-20
  54834.531     1.313E-20
  54834.618     1.438E-20
  54834.706     1.643E-20
  54834.825     1.848E-20
  54834.912     2.000E-20
  54834.968     2.147E-20
  54835.087     2.331E-20
  54835.143     2.513E-20
  54835.262     2.661E-20
  54835.350     2.823E-20
  54835.437     3.126E-20
  54835.525     3.580E-20
  54835.612     4.083E-20
  54835.700     4.642E-20
  54835.791     5.395E-20
  54835.879     6.417E-20
  54835.968     7.635E-20
  54836.068     8.932E-20
  54836.156     1.039E-19
  54836.243     1.207E-19
  54836.331     1.383E-19
  54836.418     1.553E-19
  54836.500     1.696E-19
  54836.587     1.782E-19
  54836.675     1.819E-19
  54836.762     1.835E-19
  54836.850     1.854E-19
  54836.937     1.897E-19
  54837.025     1.933E-19
  54837.112     1.903E-19
  54837.200     1.832E-19
  54837.287     1.782E-19
  54837.375     1.741E-19
  54837.462     1.670E-19
  54837.550     1.554E-19
  54837.643     1.402E-19
  54837.731     1.254E-19
  54837.818     1.134E-19
  54837.906     1.037E-19
  54837.993     9.358E-20
  54838.084     8.327E-20
  54838.156     7.366E-20
  54838.241     6.435E-20
  54838.329     5.591E-20
  54838.416     4.859E-20
  54838.504     4.235E-20
  54838.587     3.719E-20
  54838.675     3.306E-20
  54838.762     2.994E-20
  54838.850     2.763E-20
  54838.937     2.559E-20
  54839.025     2.371E-20
  54839.081     2.209E-20
  54839.168     2.060E-20
  54839.256     1.939E-20
  54839.343     1.820E-20
  54839.431     1.645E-20
  54839.518     1.432E-20
  54839.606     1.250E-20
  54839.693     1.142E-20
  54839.781     1.119E-20
  54839.868     1.116E-20
  54839.956     1.066E-20
  54840.043     1.007E-20
  54840.131     9.963E-21
  54840.218     9.842E-21
  54840.306     9.065E-21
  54840.393     8.001E-21
  54840.481     7.169E-21
  54840.568     6.444E-21
  54842.260     3.354E-21
  54842.333     3.269E-21
  54842.405     3.219E-21
  54842.478     3.119E-21
  54842.551     3.015E-21
  54842.623     2.941E-21
  54842.695     2.914E-21
  54842.768     2.872E-21
  54842.840     2.829E-21
  54842.913     2.770E-21
  54842.986     2.689E-21
  54843.058     2.668E-21
  54843.130     2.603E-21
  54843.203     2.560E-21
  54843.275     2.501E-21
  54843.348     2.451E-21
  54843.421     2.414E-21
  54843.493     2.366E-21
  54843.565     2.311E-21
  54843.637     2.254E-21
  54843.711     2.216E-21
  54843.783     2.187E-21
  54843.855     2.163E-21
  54843.928     2.139E-21
  54844.000     2.111E-21
  54844.072     2.086E-21
  54844.146     2.082E-21
  54844.218     2.060E-21
  54844.290     2.011E-21
  54844.363     1.983E-21
  54844.435     1.945E-21
  54844.507     1.915E-21
  54844.581     1.899E-21
  54844.653     1.889E-21
  54844.725     1.865E-21
  54844.798     1.845E-21
  54844.870     1.832E-21
  54844.942     1.815E-21
  54845.015     1.792E-21
  54845.088     1.774E-21
  54845.160     1.753E-21
  54845.233     1.740E-21
  54845.305     1.742E-21
  54845.378     1.741E-21
  54845.450     1.747E-21
  54845.523     1.738E-21
  54845.595     1.744E-21
  54845.667     1.779E-21
  54845.740     1.813E-21
  54845.813     1.840E-21
  54845.885     1.847E-21
  54845.958     1.841E-21
  54846.030     1.842E-21
  54846.102     1.840E-21
  54846.175     1.833E-21
  54846.248     1.819E-21
  54846.320     1.810E-21
  54846.393     1.794E-21
  54846.465     1.782E-21
  54846.537     1.792E-21
  54846.611     1.769E-21
  54846.683     1.760E-21
  54846.755     1.759E-21
  54846.828     1.736E-21
  54846.900     1.717E-21
  54846.972     1.698E-21
  54847.046     1.688E-21
  54847.118     1.670E-21
  54847.190     1.644E-21
  54847.262     1.625E-21
  54847.335     1.598E-21
  54847.407     1.569E-21
  54847.480     1.542E-21
  54847.553     1.519E-21
  54847.625     1.493E-21
  54847.697     1.480E-21
  54847.770     1.465E-21
  54847.842     1.435E-21
  54847.915     1.409E-21
  54847.988     1.395E-21
  54848.060     1.361E-21
  54848.132     1.338E-21
  54848.205     1.329E-21
  54848.277     1.319E-21
  54848.349     1.315E-21
  54848.422     1.307E-21
  54848.494     1.306E-21
  54848.566     1.308E-21
  54848.639     1.301E-21
  54848.711     1.290E-21
  54848.783     1.267E-21
  54848.856     1.245E-21
  54848.928     1.227E-21
  54849.000     1.219E-21
  54849.073     1.216E-21
  54849.145     1.209E-21
  54849.217     1.203E-21
  54849.290     1.205E-21
  54849.362     1.205E-21
  54849.434     1.202E-21
  54849.507     1.204E-21
  54849.579     1.201E-21
  54849.651     1.193E-21
  54849.724     1.188E-21
  54849.796     1.193E-21
  54850.158     1.282E-21
  54850.300     1.625E-21
  54850.374     1.962E-21
  54850.453     2.362E-21
  54850.535     2.932E-21
  54850.643     3.586E-21
  54850.724     4.116E-21
  54850.810     4.656E-21
  54850.898     4.465E-21
  54850.985     3.997E-21
  54851.073     4.135E-21
  54851.160     4.631E-21
  54851.248     4.052E-21
  54851.423     2.840E-21
  54851.513     2.173E-21
  54851.600     2.007E-21
  54851.683     1.962E-21
  54851.841     2.025E-21
  54851.959     2.072E-21
  54852.037     2.039E-21
  54852.113     1.884E-21
  54852.255     1.606E-21
  54852.328     1.527E-21
  54852.400     1.456E-21
  54852.472     1.413E-21
  54852.545     1.378E-21
  54852.617     1.354E-21
  54852.689     1.343E-21
  54852.762     1.323E-21
  54852.834     1.300E-21
  54852.906     1.288E-21
  54852.979     1.293E-21
  54853.051     1.304E-21
  54853.123     1.326E-21
  54853.196     1.348E-21
  54853.268     1.367E-21
  54853.341     1.456E-21
  54853.418     1.591E-21
  54853.497     1.737E-21
  54853.623     1.944E-21
  54853.700     2.134E-21
  54853.782     2.385E-21
  54853.867     2.942E-21
  54853.968     3.830E-21
  54854.051     4.404E-21
  54854.137     4.639E-21
  54854.225     4.758E-21
  54854.312     4.877E-21
  54854.400     4.738E-21
  54854.488     4.628E-21
  54854.575     4.913E-21
  54854.663     5.311E-21
  54854.750     5.434E-21
  54854.838     5.310E-21
  54854.925     5.096E-21
  54855.013     4.788E-21
  54855.101     4.357E-21
  54855.188     3.781E-21
  54855.276     3.072E-21
  54855.363     2.658E-21
  54855.451     2.723E-21
  54855.538     2.774E-21
  54855.626     2.779E-21
  54855.716     2.808E-21
  54855.801     2.794E-21
  54855.883     2.327E-21
  54855.962     1.893E-21
  54856.078     1.818E-21
  54856.158     1.790E-21
  54856.235     1.759E-21
  54856.383     1.741E-21
  54856.524     1.777E-21
  54856.596     1.804E-21
  54856.668     1.810E-21
  54856.743     1.815E-21
  54856.820     1.873E-21
  54856.953     1.978E-21
  54857.029     2.097E-21
  54857.108     2.155E-21
  54857.190     2.130E-21
  54857.301     2.213E-21
  54857.382     2.462E-21
  54857.465     2.644E-21
  54857.551     2.717E-21
  54857.728     3.143E-21
  54857.815     3.229E-21
  54857.903     3.620E-21
  54857.991     4.653E-21
  54858.078     6.066E-21
  54858.166     6.911E-21
  54858.253     7.289E-21
  54858.341     7.747E-21
  54858.429     8.593E-21
  54858.516     9.939E-21
  54858.604     1.153E-20
  54858.691     1.302E-20
  54858.779     1.442E-20
  54858.867     1.545E-20
  54858.954     1.555E-20
  54859.042     1.497E-20
  54859.129     1.477E-20
  54859.217     1.489E-20
  54859.304     1.468E-20
  54859.392     1.430E-20
  54859.480     1.433E-20
  54859.567     1.467E-20
  54859.655     1.426E-20
  54859.742     1.326E-20
  54859.830     1.289E-20
  54859.918     1.333E-20
  54860.005     1.371E-20
  54860.093     1.351E-20
  54860.180     1.323E-20
  54860.268     1.334E-20
  54860.356     1.382E-20
  54860.443     1.469E-20
  54860.531     1.507E-20
  54860.618     1.448E-20
  54860.706     1.368E-20
  54860.794     1.322E-20
  54860.881     1.324E-20
  54860.969     1.363E-20
  54861.056     1.368E-20
  54861.144     1.301E-20
  54861.231     1.230E-20
  54861.319     1.208E-20
  54861.407     1.231E-20
  54861.494     1.244E-20
  54861.582     1.184E-20
  54861.669     1.091E-20
  54861.757     1.016E-20
  54861.845     9.549E-21
  54861.932     9.416E-21
  54862.020     9.577E-21
  54862.107     9.336E-21
  54862.195     8.747E-21
  54862.283     8.138E-21
  54862.370     7.637E-21
  54862.458     6.863E-21
  54862.545     5.657E-21
  54862.633     4.919E-21
  54862.679     4.612E-21
  54862.751     4.318E-21
  54862.824     4.110E-21
  54862.896     3.828E-21
  54862.969     3.795E-21
  54863.041     3.603E-21
  54863.113     3.479E-21
  54863.186     3.263E-21
  54863.253     3.250E-21
  54863.325     3.116E-21
  54863.397     3.005E-21
  54863.470     2.956E-21
  54863.542     2.906E-21
  54863.614     2.862E-21
  54863.687     2.855E-21
  54863.759     2.821E-21
  54863.832     2.792E-21
  54863.904     2.706E-21
  54863.976     2.626E-21
  54864.049     2.555E-21
  54864.121     2.513E-21
  54864.193     2.470E-21
  54864.266     2.397E-21
  54864.338     2.347E-21
  54864.410     2.319E-21
  54864.483     2.276E-21
  54864.555     2.223E-21
  54864.628     2.194E-21
  54864.700     2.178E-21
  54864.772     2.112E-21
  54864.845     2.054E-21
  54864.917     2.040E-21
  54864.989     2.015E-21
  54865.062     1.990E-21
  54865.134     1.985E-21
  54865.207     1.977E-21
  54865.279     1.967E-21
  54865.351     1.942E-21
  54865.424     1.913E-21
  54865.496     1.894E-21
  54865.568     1.889E-21
  54865.641     1.869E-21
  54865.713     1.850E-21
  54865.785     1.832E-21
  54865.858     1.834E-21
  54865.930     1.856E-21
  54866.003     1.874E-21
  54866.075     1.882E-21
  54866.147     1.887E-21
  54866.220     1.882E-21
  54866.292     1.879E-21
  54866.364     1.888E-21
  54866.437     1.889E-21
  54866.509     1.871E-21
  54866.582     1.859E-21
  54866.654     1.848E-21
  54866.726     1.847E-21
  54866.799     1.838E-21
  54866.871     1.838E-21
  54866.943     1.860E-21
  54867.016     1.913E-21
  54867.088     1.936E-21
  54867.160     1.955E-21
  54867.233     1.988E-21
  54867.305     2.039E-21
  54867.378     2.093E-21
  54867.450     2.146E-21
  54867.522     2.202E-21
  54867.595     2.275E-21
  54867.667     2.276E-21
  54867.739     2.298E-21
  54868.235     2.361E-21
  54869.542     3.326E-21
  54869.642     3.853E-21
  54869.730     4.424E-21
  54869.818     4.811E-21
  54869.905     5.345E-21
  54869.993     6.297E-21
  54870.080     7.208E-21
  54870.168     7.599E-21
  54870.256     7.543E-21
  54870.343     7.448E-21
  54870.431     7.466E-21
  54870.519     6.924E-21
  54870.606     6.055E-21
  54870.694     5.857E-21
  54870.782     6.171E-21
  54870.869     6.390E-21
  54870.957     6.628E-21
  54871.044     7.021E-21
  54871.132     7.209E-21
  54871.220     7.022E-21
  54871.307     6.674E-21
  54871.395     6.566E-21
  54871.483     7.036E-21
  54871.570     7.837E-21
  54871.658     8.547E-21
  54871.746     9.011E-21
  54871.833     9.000E-21
  54871.921     8.620E-21
  54872.008     8.426E-21
  54872.096     9.159E-21
  54872.184     1.059E-20
  54872.271     1.138E-20
  54872.359     1.097E-20
  54872.447     1.019E-20
  54872.534     1.028E-20
  54872.622     1.108E-20
  54872.710     1.123E-20
  54872.797     1.111E-20
  54872.885     1.189E-20
  54872.972     1.329E-20
  54873.060     1.433E-20
  54873.148     1.491E-20
  54873.235     1.589E-20
  54873.323     1.826E-20
  54873.411     2.155E-20
  54873.498     2.417E-20
  54873.586     2.600E-20
  54873.705     2.855E-20
  54873.793     3.214E-20
  54873.880     3.653E-20
  54873.972     4.190E-20
  54874.060     4.888E-20
  54874.148     5.812E-20
  54874.237     6.885E-20
  54874.341     7.903E-20
  54874.425     8.941E-20
  54874.513     1.034E-19
  54874.600     1.214E-19
  54874.688     1.409E-19
  54874.769     1.581E-19
  54874.857     1.709E-19
  54874.945     1.791E-19
  54875.032     1.836E-19
  54875.120     1.853E-19
  54875.208     1.847E-19
  54875.295     1.843E-19
  54875.383     1.869E-19
  54875.470     1.905E-19
  54875.558     1.919E-19
  54875.646     1.887E-19
  54875.733     1.814E-19
  54875.821     1.717E-19
  54875.909     1.624E-19
  54875.996     1.566E-19
  54876.084     1.504E-19
  54876.178     1.414E-19
  54876.266     1.308E-19
  54876.353     1.180E-19
  54876.444     1.030E-19
  54876.529     8.922E-20
  54876.602     7.873E-20
  54876.689     6.983E-20
  54876.777     6.114E-20
  54876.865     5.384E-20
  54876.952     4.818E-20
  54877.040     4.298E-20
  54877.124     3.804E-20
  54877.211     3.395E-20
  54877.299     3.066E-20
  54877.387     2.803E-20
  54877.474     2.578E-20
  54877.562     2.365E-20
  54877.649     2.171E-20
  54877.706     1.987E-20
  54877.793     1.832E-20
  54877.881     1.711E-20
  54877.969     1.598E-20
  54878.056     1.497E-20
  54878.144     1.437E-20
  54878.232     1.399E-20
  54878.319     1.328E-20
  54878.407     1.240E-20
  54878.495     1.212E-20
  54878.582     1.214E-20
  54878.670     1.166E-20
  54878.758     1.064E-20
  54878.845     9.755E-21
  54878.933     9.273E-21
  54879.021     8.967E-21
  54879.108     8.589E-21
  54879.196     8.107E-21
  54879.284     7.768E-21
  54879.371     7.445E-21
  54879.459     7.015E-21
  54879.547     6.545E-21
  54879.634     6.354E-21
  54879.722     6.275E-21
  54879.810     6.077E-21
  54879.897     6.016E-21
  54879.985     6.324E-21
  54880.073     6.761E-21
  54880.160     7.293E-21
  54880.248     7.738E-21
  54880.336     7.626E-21
  54880.423     7.167E-21
  54880.511     6.697E-21
  54880.599     6.421E-21
  54880.686     6.401E-21
  54880.774     6.713E-21
  54880.862     7.002E-21
  54880.949     6.870E-21
  54881.037     6.836E-21
  54881.125     7.173E-21
  54881.212     7.393E-21
  54881.300     7.194E-21
  54881.388     6.795E-21
  54881.475     6.696E-21
  54881.563     6.733E-21
  54881.651     6.710E-21
  54881.738     6.813E-21
  54881.826     6.932E-21
  54881.914     7.042E-21
  54882.002     7.107E-21
  54882.089     7.107E-21
  54882.177     6.969E-21
  54882.265     6.719E-21
  54882.352     6.343E-21
  54882.440     6.198E-21
  54882.528     6.584E-21
  54882.615     7.396E-21
  54882.703     8.423E-21
  54882.791     9.269E-21
  54882.878     9.504E-21
  54882.966     9.573E-21
  54883.054     9.954E-21
  54883.141     1.042E-20
  54883.229     1.075E-20
  54883.317     1.095E-20
  54883.404     1.106E-20
  54883.492     1.174E-20
  54883.580     1.271E-20
  54883.667     1.351E-20
  54883.755     1.428E-20
  54883.843     1.520E-20
  54883.931     1.665E-20
  54884.018     1.843E-20
  54884.106     1.958E-20
  54884.194     2.022E-20
  54884.281     2.086E-20
  54884.400     2.186E-20
  54884.488     2.326E-20
  54884.576     2.526E-20
  54884.663     2.777E-20
  54884.751     3.064E-20
  54884.839     3.393E-20
  54884.927     3.716E-20
  54885.014     4.031E-20
  54885.102     4.391E-20
  54885.194     4.907E-20
  54885.282     5.778E-20
  54885.371     6.999E-20
  54885.471     8.179E-20
  54885.559     9.211E-20
  54885.647     1.060E-19
  54885.735     1.254E-19
  54885.822     1.467E-19
  54885.904     1.683E-19
  54885.991     1.897E-19
  54886.079     2.101E-19
  54886.167     2.281E-19
  54886.254     2.419E-19
  54886.342     2.510E-19
  54886.430     2.559E-19
  54886.517     2.594E-19
  54886.605     2.631E-19
  54886.693     2.653E-19
  54886.780     2.630E-19
  54886.868     2.578E-19
  54886.956     2.501E-19
  54887.044     2.366E-19
  54887.131     2.171E-19
  54887.219     1.940E-19
  54887.307     1.724E-19
  54887.394     1.535E-19
  54887.488     1.365E-19
  54887.576     1.219E-19
  54887.664     1.083E-19
  54887.752     9.570E-20
  54887.843     8.430E-20
  54887.914     7.378E-20
  54888.000     6.406E-20
  54888.088     5.609E-20
  54888.176     5.003E-20
  54888.259     4.526E-20
  54888.351     4.140E-20
  54888.439     3.746E-20
  54888.522     3.310E-20
  54888.610     2.926E-20
  54888.698     2.645E-20
  54888.785     2.416E-20
  54888.873     2.206E-20
  54888.929     2.022E-20
  54889.017     1.861E-20
  54889.105     1.741E-20
  54889.192     1.623E-20
  54889.280     1.488E-20
  54889.368     1.380E-20
  54889.455     1.331E-20
  54889.543     1.328E-20
  54889.631     1.310E-20
  54889.719     1.269E-20
  54889.806     1.227E-20
  54889.894     1.181E-20
  54889.982     1.109E-20
  54890.069     1.028E-20
  54890.157     9.807E-21
  54890.245     9.470E-21
  54890.333     9.114E-21
  54890.420     8.968E-21
  54890.508     8.931E-21
  54890.596     8.489E-21
  54890.731     8.065E-21
  54891.614     5.932E-21
  54892.498     4.976E-21
  54893.396     3.884E-21
  54893.578     4.692E-21
  54893.666     5.541E-21
  54893.754     6.421E-21
  54893.841     6.962E-21
  54893.929     7.151E-21
  54894.017     7.030E-21
  54894.104     6.862E-21
  54894.192     6.645E-21
  54894.280     5.851E-21
  54894.368     4.814E-21
  54894.455     4.372E-21
  54894.543     4.509E-21
  54894.631     4.380E-21
  54894.718     3.797E-21
  54894.806     3.487E-21
  54894.894     3.352E-21
  54894.982     2.999E-21
  54895.069     2.595E-21
  54895.157     2.384E-21
  54895.245     2.277E-21
  54895.333     2.254E-21
  54895.420     2.292E-21
  54895.508     2.253E-21
  54895.596     2.150E-21
  54895.684     2.118E-21
  54895.771     2.248E-21
  54895.859     2.675E-21
  54895.947     3.143E-21
  54896.034     3.263E-21
  54896.122     3.384E-21
  54896.210     3.981E-21
  54896.298     4.634E-21
  54896.385     4.885E-21
  54896.473     4.821E-21
  54896.561     4.693E-21
  54896.649     4.673E-21
  54896.736     4.941E-21
  54896.824     5.343E-21
  54896.912     5.759E-21
  54897.000     6.067E-21
  54897.087     6.159E-21
  54897.175     6.235E-21
  54897.263     6.786E-21
  54897.351     7.592E-21
  54897.438     7.847E-21
  54897.526     7.439E-21
  54897.614     6.770E-21
  54897.701     6.007E-21
  54897.789     5.508E-21
  54897.877     5.387E-21
  54897.965     5.387E-21
  54898.052     5.169E-21
  54898.140     4.488E-21
  54898.228     3.826E-21
  54898.316     3.571E-21
  54898.403     3.669E-21
  54898.491     3.852E-21
  54898.579     3.796E-21
  54898.667     3.631E-21
  54898.754     3.583E-21
  54898.842     3.473E-21
  54898.930     3.466E-21
  54899.018     3.688E-21
  54899.101     3.871E-21
  54899.179     3.429E-21
  54899.300     2.832E-21
  54899.597     2.341E-21
  54899.962     1.910E-21
  54900.035     1.862E-21
  54900.107     1.823E-21
  54900.179     1.782E-21
  54900.252     1.751E-21
  54900.324     1.716E-21
  54900.397     1.677E-21
  54900.469     1.654E-21
  54900.542     1.638E-21
  54900.614     1.613E-21
  54900.687     1.589E-21
  54900.759     1.573E-21
  54900.832     1.554E-21
  54900.904     1.528E-21
  54900.976     1.504E-21
  54901.049     1.495E-21
  54901.121     1.486E-21
  54901.194     1.477E-21
  54901.266     1.465E-21
  54901.339     1.456E-21
  54901.411     1.459E-21
  54901.484     1.458E-21
  54901.556     1.448E-21
  54901.628     1.443E-21
  54901.701     1.433E-21
  54901.773     1.417E-21
  54901.846     1.401E-21
  54901.918     1.403E-21
  54901.991     1.428E-21
  54902.063     1.426E-21
  54902.136     1.432E-21
  54902.208     1.446E-21
  54902.281     1.460E-21
  54902.353     1.481E-21
  54902.425     1.500E-21
  54902.498     1.521E-21
  54902.570     1.558E-21
  54902.643     1.622E-21
  54902.715     1.675E-21
  54902.788     1.719E-21
  54902.860     1.769E-21
  54902.933     1.816E-21
  54903.005     1.850E-21
  54903.078     1.920E-21
  54903.150     2.031E-21
  54903.222     2.142E-21
  54903.295     2.274E-21
  54903.367     2.341E-21
  54903.440     2.431E-21
  54903.512     2.426E-21
  54903.585     2.370E-21
  54903.657     2.286E-21
  54903.730     2.183E-21
  54903.802     2.085E-21
  54903.875     2.007E-21
  54903.947     1.933E-21
  54904.019     1.870E-21
  54904.092     1.827E-21
  54904.164     1.793E-21
  54904.237     1.760E-21
  54904.309     1.731E-21
  54904.382     1.731E-21
  54904.454     1.751E-21
  54904.527     1.767E-21
  54904.599     1.806E-21
  54904.672     1.893E-21
  54904.744     1.994E-21
  54904.817     2.121E-21
  54904.889     2.295E-21
  54904.961     2.505E-21
  54905.034     2.680E-21
  54905.106     2.794E-21
  54905.179     2.948E-21
  54905.251     2.944E-21
  54905.324     2.945E-21
  54905.396     2.918E-21
  54905.469     2.839E-21
  54905.541     2.763E-21
  54905.614     2.687E-21
  54905.686     2.654E-21
  54905.758     2.581E-21
  54905.831     2.511E-21
  54905.903     2.444E-21
  54905.976     2.388E-21
  54906.048     2.343E-21
  54906.121     2.306E-21
  54906.193     2.273E-21
  54906.266     2.203E-21
  54906.338     2.132E-21
  54906.411     2.101E-21
  54906.483     2.033E-21
  54906.556     1.982E-21
  54906.628     1.969E-21
  54906.701     1.932E-21
  54906.773     1.902E-21
  54906.845     1.881E-21
  54906.918     1.868E-21
  54906.990     1.848E-21
  54907.063     1.846E-21
  54907.135     1.838E-21
  54907.208     1.812E-21
  54907.280     1.806E-21
  54907.353     1.818E-21
  54907.425     1.810E-21
  54907.498     1.803E-21
  54907.570     1.790E-21
  54907.643     1.778E-21
  54907.715     1.767E-21
  54907.787     1.762E-21
  54907.860     1.753E-21
  54907.932     1.750E-21
  54908.005     1.765E-21
  54908.077     1.785E-21
  54908.150     1.832E-21
  54908.222     1.840E-21
  54908.295     1.831E-21
  54908.367     1.821E-21
  54908.440     1.838E-21
  54908.512     1.851E-21
  54908.585     1.866E-21
  54908.657     1.884E-21
  54908.730     1.916E-21
  54908.802     1.927E-21
  54910.197     3.298E-21
  54910.252     6.957E-21
  54910.340     7.499E-21
  54910.427     7.032E-21
  54910.515     6.373E-21
  54910.603     6.131E-21
  54910.691     5.896E-21
  54910.779     5.023E-21
  54911.082     4.388E-21
  54911.967     3.380E-21
  54912.851     3.274E-21
  54913.675     3.471E-21
  54913.763     3.729E-21
  54913.851     3.774E-21
  54913.939     4.106E-21
  54914.026     4.799E-21
  54914.114     5.528E-21
  54914.202     5.977E-21
  54914.289     5.798E-21
  54914.377     5.463E-21
  54914.465     5.819E-21
  54914.553     6.528E-21
  54914.640     6.864E-21
  54914.728     6.848E-21
  54914.816     7.019E-21
  54914.903     7.643E-21
  54914.991     8.640E-21
  54915.079     9.420E-21
  54915.167     9.301E-21
  54915.254     8.574E-21
  54915.342     7.828E-21
  54915.430     7.284E-21
  54915.517     6.981E-21
  54915.605     7.056E-21
  54915.693     7.097E-21
  54915.781     6.907E-21
  54915.868     7.070E-21
  54915.956     7.358E-21
  54916.044     7.022E-21
  54916.132     6.399E-21
  54916.219     6.481E-21
  54916.307     7.277E-21
  54916.395     8.092E-21
  54916.482     8.876E-21
  54916.570     9.519E-21
  54916.658     9.790E-21
  54916.746     9.796E-21
  54916.833     9.879E-21
  54916.921     9.959E-21
  54917.009     1.027E-20
  54917.096     1.105E-20
  54917.184     1.162E-20
  54917.272     1.194E-20
  54917.360     1.269E-20
  54917.447     1.390E-20
  54917.535     1.463E-20
  54917.623     1.479E-20
  54917.711     1.558E-20
  54917.798     1.772E-20
  54917.886     2.061E-20
  54917.957     2.308E-20
  54918.045     2.523E-20
  54918.132     2.744E-20
  54918.220     2.971E-20
  54918.308     3.163E-20
  54918.396     3.306E-20
  54918.483     3.474E-20
  54918.571     3.687E-20
  54918.659     3.894E-20
  54918.746     4.123E-20
  54918.824     4.462E-20
  54918.911     4.912E-20
  54918.999     5.353E-20
  54919.087     5.785E-20
  54919.174     6.461E-20
  54919.248     7.537E-20
  54919.347     8.988E-20
  54919.434     1.081E-19
  54919.522     1.303E-19
  54919.610     1.558E-19
  54919.697     1.831E-19
  54919.785     2.090E-19
  54919.873     2.294E-19
  54919.961     2.419E-19
  54920.048     2.497E-19
  54920.136     2.540E-19
  54920.224     2.563E-19
  54920.312     2.602E-19
  54920.399     2.631E-19
  54920.487     2.616E-19
  54920.575     2.565E-19
  54920.663     2.490E-19
  54920.750     2.403E-19
  54920.838     2.320E-19
  54920.926     2.227E-19
  54921.014     2.108E-19
  54921.101     1.982E-19
  54921.189     1.845E-19
  54921.278     1.684E-19
  54921.366     1.502E-19
  54921.452     1.317E-19
  54921.540     1.168E-19
  54921.628     1.045E-19
  54921.705     9.286E-20
  54921.793     8.185E-20
  54921.880     7.299E-20
  54921.982     6.558E-20
  54922.070     5.867E-20
  54922.157     5.304E-20
  54922.256     4.929E-20
  54922.344     4.664E-20
  54922.431     4.357E-20
  54922.519     3.958E-20
  54922.607     3.523E-20
  54922.694     3.152E-20
  54922.782     2.897E-20
  54922.870     2.722E-20
  54922.958     2.582E-20
  54923.062     2.445E-20
  54923.133     2.312E-20
  54923.238     2.182E-20
  54923.326     2.050E-20
  54923.413     1.939E-20
  54923.501     1.857E-20
  54923.589     1.782E-20
  54923.676     1.723E-20
  54923.764     1.710E-20
  54923.852     1.728E-20
  54923.940     1.683E-20
  54924.027     1.554E-20
  54924.115     1.423E-20
  54924.203     1.379E-20
  54924.291     1.388E-20
  54924.378     1.345E-20
  54924.466     1.248E-20
  54924.554     1.177E-20
  54924.642     1.171E-20
  54924.729     1.196E-20
  54924.817     1.177E-20
  54924.905     1.106E-20
  54924.993     1.071E-20
  54925.080     1.114E-20
  54925.168     1.178E-20
  54925.256     1.185E-20
  54925.344     1.153E-20
  54925.431     1.108E-20
  54925.519     1.050E-20
  54925.607     1.054E-20
  54925.695     1.134E-20
  54925.782     1.205E-20
  54925.870     1.253E-20
  54925.958     1.286E-20
  54926.046     1.269E-20
  54926.133     1.223E-20
  54926.221     1.197E-20
  54926.309     1.219E-20
  54926.397     1.254E-20
  54926.484     1.271E-20
  54926.572     1.293E-20
  54926.660     1.360E-20
  54926.748     1.483E-20
  54926.835     1.661E-20
  54926.923     1.851E-20
  54927.011     1.987E-20
  54927.099     2.057E-20
  54927.186     2.070E-20
  54927.257     2.058E-20
  54927.362     2.059E-20
  54927.450     2.104E-20
  54927.537     2.174E-20
  54927.625     2.259E-20
  54927.696     2.381E-20
  54927.801     2.540E-20
  54927.872     2.697E-20
  54927.959     2.856E-20
  54928.047     3.024E-20
  54928.135     3.247E-20
  54928.212     3.543E-20
  54928.310     3.865E-20
  54928.387     4.262E-20
  54928.475     4.745E-20
  54928.563     5.273E-20
  54928.651     5.824E-20
  54928.739     6.520E-20
  54928.826     7.581E-20
  54928.911     9.132E-20
  54928.999     1.115E-19
  54929.086     1.352E-19
  54929.173     1.608E-19
  54929.263     1.874E-19
  54929.350     2.140E-19
  54929.437     2.398E-19
  54929.525     2.661E-19
  54929.613     2.884E-19
  54929.701     3.026E-19
  54929.797     3.103E-19
  54929.885     3.169E-19
  54929.973     3.255E-19
  54930.061     3.309E-19
  54930.148     3.270E-19
  54930.236     3.146E-19
  54930.324     2.935E-19
  54930.403     2.671E-19
  54930.490     2.417E-19
  54930.578     2.195E-19
  54930.668     1.997E-19
  54930.754     1.808E-19
  54930.843     1.618E-19
  54930.929     1.433E-19
  54931.017     1.265E-19
  54931.105     1.118E-19
  54931.193     9.991E-20
  54931.270     9.100E-20
  54931.368     8.383E-20
  54931.445     7.626E-20
  54931.547     6.832E-20
  54931.635     6.152E-20
  54931.722     5.609E-20
  54931.810     5.138E-20
  54931.898     4.691E-20
  54931.996     4.276E-20
  54932.084     3.902E-20
  54932.172     3.584E-20
  54932.260     3.378E-20
  54932.347     3.248E-20
  54932.452     3.159E-20
  54932.523     3.040E-20
  54932.611     2.876E-20
  54932.715     2.676E-20
  54932.803     2.494E-20
  54932.891     2.369E-20
  54932.962     2.269E-20
  54933.066     2.174E-20
  54933.154     2.072E-20
  54933.242     1.946E-20
  54933.330     1.840E-20
  54933.418     1.788E-20
  54933.505     1.734E-20
  54933.593     1.640E-20
  54933.681     1.553E-20
  54933.769     1.503E-20
  54933.856     1.441E-20
  54933.944     1.330E-20
  54934.032     1.181E-20
  54934.120     1.097E-20
  54934.208     1.129E-20
  54934.295     1.188E-20
  54934.383     1.181E-20
  54934.471     1.086E-20
  54934.559     9.484E-21
  54934.646     8.543E-21
  54934.734     8.228E-21
  54934.822     8.110E-21
  54934.910     8.207E-21
  54934.997     8.200E-21
  54935.085     7.969E-21
  54935.173     7.580E-21
  54935.261     6.979E-21
  54935.349     6.834E-21
  54935.436     7.212E-21
  54935.524     7.209E-21
  54935.612     6.706E-21
  54935.700     6.248E-21
  54935.787     5.689E-21
  54935.875     4.781E-21
  54935.963     4.025E-21
  54936.051     3.779E-21
  54936.139     3.922E-21
  54936.226     4.389E-21
  54936.314     5.171E-21
  54936.402     5.903E-21
  54936.490     6.187E-21
  54936.577     6.096E-21
  54936.665     6.114E-21
  54936.753     6.579E-21
  54936.841     7.078E-21
  54936.929     6.793E-21
  54937.016     5.741E-21
  54937.104     4.644E-21
  54937.192     4.096E-21
  54937.280     3.980E-21
  54937.368     3.989E-21
  54937.455     4.161E-21
  54937.543     4.455E-21
  54937.631     4.345E-21
  54937.719     3.877E-21
  54937.806     3.756E-21
  54937.894     4.314E-21
  54937.982     5.016E-21
  54938.070     4.928E-21
  54938.158     4.173E-21
  54938.245     3.927E-21
  54938.333     4.641E-21
  54938.421     5.252E-21
  54938.509     5.064E-21
  54938.597     4.745E-21
  54938.684     4.774E-21
  54938.772     4.801E-21
  54938.860     4.695E-21
  54938.948     4.667E-21
  54939.035     4.906E-21
  54939.123     5.185E-21
  54939.211     5.010E-21
  54939.299     4.656E-21
  54939.387     4.401E-21
  54939.474     4.163E-21
  54939.562     3.716E-21
  54939.650     3.230E-21
  54939.738     3.230E-21
  54939.826     3.345E-21
  54939.913     3.112E-21
  54940.001     2.693E-21
  54940.089     2.572E-21
  54940.177     2.977E-21
  54940.265     3.641E-21
  54940.352     4.370E-21
  54940.440     4.887E-21
  54940.528     4.575E-21
  54940.616     3.863E-21
  54940.703     4.253E-21
  54940.791     5.565E-21
  54940.879     6.049E-21
  54940.967     5.633E-21
  54941.055     5.467E-21
  54941.142     5.796E-21
  54941.230     6.062E-21
  54941.318     5.982E-21
  54941.406     5.624E-21
  54941.494     5.417E-21
  54941.581     5.510E-21
  54941.669     5.343E-21
  54941.757     4.885E-21
  54941.845     4.489E-21
  54941.933     4.570E-21
  54942.020     5.163E-21
  54942.108     5.942E-21
  54942.196     6.493E-21
  54942.284     6.801E-21
  54942.372     6.706E-21
  54942.459     6.164E-21
  54942.547     6.468E-21
  54942.635     7.770E-21
  54942.723     8.821E-21
  54942.811     9.191E-21
  54942.898     9.419E-21
  54942.986     9.610E-21
  54943.074     9.528E-21
  54943.162     9.303E-21
  54943.250     8.935E-21
  54943.337     8.318E-21
  54943.425     8.035E-21
  54943.513     8.299E-21
  54943.601     8.733E-21
  54943.689     9.105E-21
  54943.776     9.557E-21
  54943.864     9.957E-21
  54943.952     1.007E-20
  54944.040     1.016E-20
  54944.128     1.116E-20
  54944.215     1.302E-20
  54944.303     1.475E-20
  54944.391     1.641E-20
  54944.479     1.864E-20
  54944.550     2.126E-20
  54944.654     2.371E-20
  54944.725     2.576E-20
  54944.813     2.707E-20
  54944.901     2.735E-20
  54944.989     2.704E-20
  54945.077     2.701E-20
  54945.164     2.761E-20
  54945.252     2.864E-20
  54945.357     2.906E-20
  54945.445     2.850E-20
  54945.516     2.776E-20
  54945.620     2.723E-20
  54945.691     2.677E-20
  54945.779     2.690E-20
  54945.867     2.766E-20
  54945.955     2.858E-20
  54946.042     2.966E-20
  54946.130     3.045E-20
  54946.218     3.050E-20
  54946.306     3.063E-20
  54946.394     3.106E-20
  54946.481     3.126E-20
  54946.569     3.124E-20
  54946.657     3.078E-20
  54946.745     2.993E-20
  54946.833     2.914E-20
  54946.921     2.823E-20
  54947.008     2.674E-20
  54947.113     2.492E-20
  54947.184     2.332E-20
  54947.289     2.193E-20
  54947.376     2.034E-20
  54947.464     1.860E-20
  54947.552     1.705E-20
  54947.640     1.553E-20
  54947.728     1.399E-20
  54947.816     1.271E-20
  54947.903     1.180E-20
  54947.991     1.130E-20
  54948.079     1.095E-20
  54948.167     1.035E-20
  54948.255     9.369E-21
  54948.342     8.367E-21
  54948.430     7.636E-21
  54948.518     7.212E-21
  54948.606     7.197E-21
  54948.694     7.394E-21
  54948.781     7.578E-21
  54948.869     7.803E-21
  54948.957     7.919E-21
  54949.045     7.737E-21
  54949.133     7.048E-21
  54949.221     6.212E-21
  54949.308     6.073E-21
  54949.396     6.104E-21
  54949.484     5.651E-21
  54949.572     5.409E-21
  54949.660     5.741E-21
  54949.747     6.051E-21
  54949.835     5.920E-21
  54949.923     5.771E-21
  54950.011     5.949E-21
  54950.099     5.897E-21
  54950.187     5.474E-21
  54950.274     5.153E-21
  54950.362     5.146E-21
  54950.450     5.293E-21
  54950.538     5.330E-21
  54950.626     5.273E-21
  54950.714     5.322E-21
  54950.801     5.103E-21
  54950.889     4.824E-21
  54950.977     4.884E-21
  54951.065     5.171E-21
  54951.153     5.552E-21
  54951.240     5.866E-21
  54951.328     5.839E-21
  54951.416     5.275E-21
  54951.504     4.529E-21
  54951.592     4.099E-21
  54951.680     4.288E-21
  54951.767     4.976E-21
  54951.855     5.640E-21
  54951.943     6.105E-21
  54952.031     6.287E-21
  54952.119     5.740E-21
  54952.207     5.169E-21
  54952.294     5.181E-21
  54952.382     5.483E-21
  54952.470     5.848E-21
  54952.558     6.235E-21
  54952.646     6.383E-21
  54952.733     6.271E-21
  54952.821     6.002E-21
  54952.909     6.069E-21
  54952.997     6.923E-21
  54953.085     8.041E-21
  54953.173     8.605E-21
  54953.260     8.150E-21
  54953.348     7.094E-21
  54953.436     6.495E-21
  54953.524     6.602E-21
  54953.612     6.656E-21
  54953.700     6.398E-21
  54953.787     6.465E-21
  54953.875     7.326E-21
  54953.963     8.337E-21
  54954.051     8.633E-21
  54954.139     8.609E-21
  54954.227     9.039E-21
  54954.314     9.673E-21
  54954.402     9.930E-21
  54954.490     1.010E-20
  54954.578     1.051E-20
  54954.666     1.059E-20
  54954.754     1.033E-20
  54954.841     1.045E-20
  54954.929     1.099E-20
  54955.017     1.120E-20
  54955.105     1.081E-20
  54955.193     1.073E-20
  54955.281     1.114E-20
  54955.368     1.147E-20
  54955.456     1.177E-20
  54955.544     1.222E-20
  54955.632     1.256E-20
  54955.720     1.323E-20
  54955.808     1.482E-20
  54955.895     1.695E-20
  54955.983     1.861E-20
  54956.071     1.923E-20
  54956.159     1.928E-20
  54956.247     1.942E-20
  54956.335     2.006E-20
  54956.422     2.157E-20
  54956.493     2.362E-20
  54956.581     2.554E-20
  54956.669     2.758E-20
  54956.757     3.012E-20
  54956.845     3.306E-20
  54956.933     3.634E-20
  54957.021     3.993E-20
  54957.108     4.344E-20
  54957.196     4.755E-20
  54957.273     5.339E-20
  54957.361     6.144E-20
  54957.449     7.130E-20
  54957.523     8.281E-20
  54957.622     9.538E-20
  54957.709     1.091E-19
  54957.797     1.268E-19
  54957.885     1.524E-19
  54957.973     1.842E-19
  54958.061     2.139E-19
  54958.149     2.369E-19
  54958.236     2.579E-19
  54958.324     2.801E-19
  54958.421     3.024E-19
  54958.509     3.159E-19
  54958.597     3.143E-19
  54958.685     3.089E-19
  54958.772     3.052E-19
  54958.860     3.029E-19
  54958.948     3.070E-19
  54959.036     3.109E-19
  54959.124     3.040E-19
  54959.212     2.877E-19
  54959.291     2.660E-19
  54959.378     2.422E-19
  54959.466     2.189E-19
  54959.554     1.991E-19
  54959.642     1.819E-19
  54959.730     1.629E-19
  54959.818     1.421E-19
  54959.906     1.231E-19
  54959.993     1.084E-19
  54960.071     9.710E-20
  54960.169     8.670E-20
  54960.246     7.663E-20
  54960.348     6.843E-20
  54960.436     6.231E-20
  54960.524     5.741E-20
  54960.612     5.327E-20
  54960.710     4.964E-20
  54960.798     4.584E-20
  54960.886     4.193E-20
  54960.963     3.898E-20
  54961.061     3.649E-20
  54961.149     3.402E-20
  54961.237     3.162E-20
  54961.325     2.896E-20
  54961.413     2.650E-20
  54961.518     2.496E-20
  54961.589     2.430E-20
  54961.693     2.417E-20
  54961.781     2.397E-20
  54961.869     2.308E-20
  54961.957     2.188E-20
  54962.045     2.096E-20
  54962.133     2.062E-20
  54962.220     2.069E-20
  54962.308     2.043E-20
  54962.396     1.954E-20
  54962.484     1.887E-20
  54962.572     1.868E-20
  54962.660     1.837E-20
  54962.748     1.834E-20
  54962.835     1.882E-20
  54962.923     1.911E-20
  54963.011     1.872E-20
  54963.099     1.804E-20
  54963.187     1.776E-20
  54963.275     1.815E-20
  54963.363     1.928E-20
  54963.434     2.055E-20
  54963.521     2.095E-20
  54963.626     2.092E-20
  54963.714     2.124E-20
  54963.802     2.183E-20
  54963.890     2.255E-20
  54963.978     2.356E-20
  54964.065     2.444E-20
  54964.153     2.496E-20
  54964.224     2.620E-20
  54964.312     2.853E-20
  54964.400     3.081E-20
  54964.488     3.217E-20
  54964.576     3.325E-20
  54964.664     3.521E-20
  54964.751     3.845E-20
  54964.839     4.215E-20
  54964.927     4.559E-20
  54965.004     4.927E-20
  54965.092     5.395E-20
  54965.180     5.960E-20
  54965.268     6.608E-20
  54965.356     7.506E-20
  54965.430     8.651E-20
  54965.528     9.828E-20
  54965.616     1.119E-19
  54965.704     1.308E-19
  54965.792     1.543E-19
  54965.880     1.792E-19
  54965.968     2.057E-19
  54966.056     2.359E-19
  54966.143     2.675E-19
  54966.231     2.958E-19
  54966.328     3.192E-19
  54966.416     3.366E-19
  54966.504     3.505E-19
  54966.592     3.626E-19
  54966.680     3.678E-19
  54966.767     3.638E-19
  54966.855     3.527E-19
  54966.943     3.377E-19
  54967.031     3.201E-19
  54967.119     2.994E-19
  54967.198     2.730E-19
  54967.286     2.417E-19
  54967.374     2.089E-19
  54967.463     1.804E-19
  54967.551     1.571E-19
  54967.636     1.386E-19
  54967.725     1.233E-19
  54967.813     1.106E-19
  54967.890     9.926E-20
  54967.978     8.819E-20
  54968.066     7.794E-20
  54968.168     6.936E-20
  54968.256     6.263E-20
  54968.343     5.643E-20
  54968.431     5.129E-20
  54968.519     4.757E-20
  54968.618     4.410E-20
  54968.706     4.053E-20
  54968.793     3.752E-20
  54968.881     3.445E-20
  54968.969     3.111E-20
  54969.057     2.864E-20
  54969.145     2.685E-20
  54969.233     2.557E-20
  54969.321     2.505E-20
  54969.425     2.507E-20
  54969.513     2.473E-20
  54969.601     2.341E-20
  54969.672     2.185E-20
  54969.777     2.102E-20
  54969.848     2.111E-20
  54969.953     2.153E-20
  54970.041     2.155E-20
  54970.128     2.045E-20
  54970.216     1.900E-20
  54970.304     1.827E-20
  54970.392     1.769E-20
  54970.480     1.641E-20
  54970.568     1.492E-20
  54970.656     1.369E-20
  54970.744     1.265E-20
  54970.831     1.175E-20
  54970.919     1.066E-20
  54971.007     9.676E-21
  54971.095     9.461E-21
  54971.183     9.713E-21
  54971.271     9.549E-21
  54971.359     9.243E-21
  54971.447     9.388E-21
  54971.535     9.432E-21
  54971.622     9.066E-21
  54971.710     8.487E-21
  54971.798     8.128E-21
  54971.886     7.912E-21
  54971.974     7.524E-21
  54972.062     6.773E-21
  54972.150     5.930E-21
  54972.238     5.550E-21
  54972.325     5.747E-21
  54972.413     6.324E-21
  54972.501     6.659E-21
  54972.589     6.211E-21
  54972.677     5.371E-21
  54972.765     4.868E-21
  54972.853     4.830E-21
  54972.941     5.049E-21
  54973.029     5.179E-21
  54973.116     5.302E-21
  54973.204     5.472E-21
  54973.292     5.489E-21
  54973.380     5.263E-21
  54973.468     4.721E-21
  54973.556     4.341E-21
  54973.644     4.667E-21
  54973.732     5.219E-21
  54973.820     5.597E-21
  54973.907     5.671E-21
  54973.995     5.274E-21
  54974.083     4.709E-21
  54974.171     4.548E-21
  54974.259     4.701E-21
  54974.347     4.845E-21
  54974.435     4.640E-21
  54974.523     4.361E-21
  54974.611     4.512E-21
  54974.698     4.561E-21
  54974.786     4.032E-21
  54974.874     3.424E-21
  54974.962     3.275E-21
  54975.050     3.690E-21
  54975.138     4.142E-21
  54975.226     4.101E-21
  54975.314     3.795E-21
  54975.402     3.947E-21
  54975.490     4.522E-21
  54975.577     4.663E-21
  54975.665     4.137E-21
  54975.753     3.494E-21
  54975.841     3.183E-21
  54975.929     3.291E-21
  54976.017     3.909E-21
  54976.105     4.523E-21
  54976.193     4.776E-21
  54976.281     4.715E-21
  54976.368     4.498E-21
  54976.456     4.491E-21
  54976.544     4.744E-21
  54976.632     4.770E-21
  54976.720     4.698E-21
  54976.808     5.055E-21
  54976.896     5.735E-21
  54976.984     6.153E-21
  54977.072     6.325E-21
  54977.160     6.477E-21
  54977.247     6.288E-21
  54977.335     5.751E-21
  54977.423     5.499E-21
  54977.511     5.467E-21
  54977.599     5.126E-21
  54977.687     4.761E-21
  54977.775     4.611E-21
  54977.863     4.376E-21
  54977.951     3.947E-21
  54978.039     3.583E-21
  54978.126     3.523E-21
  54978.214     3.631E-21
  54978.302     3.561E-21
  54978.390     3.220E-21
  54978.478     3.048E-21
  54978.566     3.289E-21
  54978.654     3.603E-21
  54978.742     3.414E-21
  54978.830     3.085E-21
  54978.918     3.332E-21
  54979.006     4.101E-21
  54979.093     4.840E-21
  54979.181     5.472E-21
  54979.269     6.148E-21
  54979.357     6.736E-21
  54979.445     7.137E-21
  54979.533     7.306E-21
  54979.621     6.918E-21
  54979.709     6.233E-21
  54979.797     5.741E-21
  54979.885     5.579E-21
  54979.972     5.397E-21
  54980.060     5.444E-21
  54980.148     5.946E-21
  54980.236     6.519E-21
  54980.324     6.518E-21
  54980.412     5.807E-21
  54980.500     4.894E-21
  54980.588     4.567E-21
  54980.676     5.007E-21
  54980.764     5.380E-21
  54980.852     5.345E-21
  54980.939     5.119E-21
  54981.027     4.827E-21
  54981.115     4.679E-21
  54981.203     4.693E-21
  54981.291     4.551E-21
  54981.379     4.114E-21
  54981.467     3.731E-21
  54981.555     4.118E-21
  54981.643     5.149E-21
  54981.731     5.957E-21
  54981.819     6.014E-21
  54981.907     5.343E-21
  54981.994     4.644E-21
  54982.082     4.978E-21
  54982.170     5.763E-21
  54982.258     6.100E-21
  54982.346     6.519E-21
  54982.434     7.421E-21
  54982.522     8.519E-21
  54982.610     9.377E-21
  54982.698     1.009E-20
  54982.786     1.094E-20
  54982.874     1.169E-20
  54982.961     1.248E-20
  54983.049     1.371E-20
  54983.137     1.437E-20
  54983.225     1.370E-20
  54983.313     1.216E-20
  54983.401     1.067E-20
  54983.489     9.687E-21
  54983.577     9.133E-21
  54983.665     8.824E-21
  54983.753     8.372E-21
  54983.841     7.694E-21
  54983.929     7.268E-21
  54984.016     7.311E-21
  54984.104     7.404E-21
  54984.192     7.268E-21
  54984.280     7.171E-21
  54984.368     7.312E-21
  54984.456     7.476E-21
  54984.544     7.558E-21
  54984.632     7.791E-21
  54984.720     8.385E-21
  54984.808     8.937E-21
  54984.896     9.097E-21
  54984.984     9.449E-21
  54985.072     1.038E-20
  54985.159     1.160E-20
  54985.247     1.250E-20
  54985.335     1.280E-20
  54985.423     1.289E-20
  54985.511     1.330E-20
  54985.599     1.423E-20
  54985.687     1.521E-20
  54985.775     1.569E-20
  54985.863     1.578E-20
  54985.951     1.567E-20
  54986.039     1.575E-20
  54986.127     1.627E-20
  54986.215     1.673E-20
  54986.302     1.680E-20
  54986.390     1.639E-20
  54986.478     1.614E-20
  54986.566     1.675E-20
  54986.654     1.776E-20
  54986.725     1.842E-20
  54986.830     1.861E-20
  54986.918     1.900E-20
  54987.006     1.965E-20
  54987.077     1.998E-20
  54987.182     2.007E-20
  54987.270     2.049E-20
  54987.358     2.151E-20
  54987.429     2.296E-20
  54987.517     2.445E-20
  54987.605     2.540E-20
  54987.692     2.565E-20
  54987.797     2.621E-20
  54987.868     2.772E-20
  54987.956     2.981E-20
  54988.044     3.185E-20
  54988.132     3.360E-20
  54988.220     3.542E-20
  54988.297     3.816E-20
  54988.396     4.184E-20
  54988.484     4.585E-20
  54988.561     4.931E-20
  54988.649     5.289E-20
  54988.737     5.797E-20
  54988.825     6.461E-20
  54988.913     7.275E-20
  54988.987     8.361E-20
  54989.086     9.739E-20
  54989.173     1.128E-19
  54989.261     1.328E-19
  54989.349     1.607E-19
  54989.437     1.926E-19
  54989.525     2.228E-19
  54989.613     2.510E-19
  54989.701     2.809E-19
  54989.789     3.150E-19
  54989.886     3.470E-19
  54989.974     3.701E-19
  54990.062     3.840E-19
  54990.150     3.890E-19
  54990.238     3.890E-19
  54990.326     3.866E-19
  54990.414     3.827E-19
  54990.501     3.732E-19
  54990.589     3.552E-19
  54990.677     3.320E-19
  54990.765     3.041E-19
  54990.844     2.756E-19
  54990.932     2.502E-19
  54991.020     2.246E-19
  54991.108     1.997E-19
  54991.198     1.782E-19
  54991.283     1.582E-19
  54991.372     1.377E-19
  54991.460     1.186E-19
  54991.548     1.031E-19
  54991.636     9.221E-20
  54991.724     8.449E-20
  54991.801     7.779E-20
  54991.903     7.121E-20
  54991.991     6.522E-20
  54992.079     6.056E-20
  54992.167     5.676E-20
  54992.265     5.302E-20
  54992.353     4.941E-20
  54992.430     4.620E-20
  54992.518     4.354E-20
  54992.617     4.133E-20
  54992.705     3.943E-20
  54992.793     3.791E-20
  54992.881     3.661E-20
  54992.969     3.521E-20
  54993.057     3.386E-20
  54993.145     3.310E-20
  54993.233     3.264E-20
  54993.321     3.213E-20
  54993.408     3.139E-20
  54993.513     3.054E-20
  54993.584     3.039E-20
  54993.672     3.126E-20
  54993.760     3.245E-20
  54993.848     3.368E-20
  54993.936     3.438E-20
  54994.024     3.475E-20
  54994.112     3.485E-20
  54994.200     3.483E-20
  54994.288     3.532E-20
  54994.376     3.670E-20
  54994.464     3.916E-20
  54994.541     4.206E-20
  54994.629     4.431E-20
  54994.728     4.591E-20
  54994.805     4.788E-20
  54994.893     5.072E-20
  54994.981     5.490E-20
  54995.069     6.075E-20
  54995.157     6.771E-20
  54995.231     7.524E-20
  54995.330     8.433E-20
  54995.417     9.540E-20
  54995.505     1.079E-19
  54995.593     1.223E-19
  54995.681     1.411E-19
  54995.769     1.660E-19
  54995.857     1.934E-19
  54995.945     2.189E-19
  54996.033     2.429E-19
  54996.121     2.689E-19
  54996.218     2.976E-19
  54996.306     3.238E-19
  54996.394     3.428E-19
  54996.482     3.591E-19
  54996.570     3.743E-19
  54996.658     3.776E-19
  54996.746     3.655E-19
  54996.834     3.479E-19
  54996.922     3.274E-19
  54997.010     3.012E-19
  54997.089     2.709E-19
  54997.176     2.408E-19
  54997.264     2.134E-19
  54997.352     1.877E-19
  54997.440     1.625E-19
  54997.528     1.406E-19
  54997.616     1.252E-19
  54997.704     1.127E-19
  54997.792     9.976E-20
  54997.870     8.787E-20
  54997.958     7.844E-20
  54998.046     7.132E-20
  54998.147     6.654E-20
  54998.235     6.256E-20
  54998.323     5.881E-20
  54998.411     5.605E-20
  54998.499     5.448E-20
  54998.587     5.343E-20
  54998.675     5.275E-20
  54998.763     5.156E-20
  54998.862     4.988E-20
  54998.939     4.890E-20
  54999.038     4.827E-20
  54999.126     4.743E-20
  54999.203     4.717E-20
  54999.301     4.729E-20
  54999.379     4.656E-20
  54999.477     4.530E-20
  54999.555     4.423E-20
  54999.643     4.262E-20
  54999.741     4.015E-20
  54999.829     3.767E-20
  54999.917     3.568E-20
  55000.005     3.432E-20
  55000.093     3.340E-20
  55000.181     3.293E-20
  55000.269     3.290E-20
  55000.357     3.299E-20
  55000.445     3.311E-20
  55000.533     3.345E-20
  55000.621     3.370E-20
  55000.709     3.322E-20
  55000.797     3.251E-20
  55000.885     3.259E-20
  55000.973     3.327E-20
  55001.061     3.363E-20
  55001.138     3.340E-20
  55001.237     3.292E-20
  55001.325     3.268E-20
  55001.413     3.230E-20
  55001.501     3.147E-20
  55001.589     3.023E-20
  55001.677     2.900E-20
  55001.765     2.831E-20
  55001.869     2.784E-20
  55001.941     2.742E-20
  55002.045     2.676E-20
  55002.133     2.499E-20
  55002.221     2.263E-20
  55002.309     2.102E-20
  55002.397     2.068E-20
  55002.485     2.067E-20
  55002.573     1.974E-20
  55002.661     1.785E-20
  55002.749     1.584E-20
  55002.837     1.436E-20
  55002.925     1.347E-20
  55003.013     1.286E-20
  55003.101     1.250E-20
  55003.189     1.209E-20
  55003.277     1.106E-20
  55003.365     1.011E-20
  55003.453     1.008E-20
  55003.541     1.043E-20
  55003.629     1.063E-20
  55003.717     1.035E-20
  55003.805     9.589E-21
  55004.148     9.388E-21
  55005.037     7.377E-21
  55005.925     7.816E-21
  55006.813     6.957E-21
  55007.702     6.451E-21
  55008.590     7.511E-21
  55009.479     8.228E-21
  55010.247     1.037E-20
  55010.492     1.061E-20
  55010.668     1.124E-20
  55010.756     1.222E-20
  55010.844     1.299E-20
  55010.932     1.312E-20
  55011.020     1.331E-20
  55011.108     1.388E-20
  55011.196     1.450E-20
  55011.284     1.491E-20
  55011.372     1.517E-20
  55011.460     1.550E-20
  55011.548     1.603E-20
  55011.636     1.656E-20
  55011.724     1.723E-20
  55011.812     1.782E-20
  55011.900     1.784E-20
  55011.988     1.770E-20
  55012.076     1.757E-20
  55012.164     1.806E-20
  55012.252     1.963E-20
  55012.340     2.170E-20
  55012.428     2.321E-20
  55012.499     2.408E-20
  55012.587     2.494E-20
  55012.675     2.585E-20
  55012.763     2.736E-20
  55012.851     2.957E-20
  55012.939     3.203E-20
  55013.027     3.468E-20
  55013.115     3.708E-20
  55013.203     3.901E-20
  55013.291     4.135E-20
  55013.379     4.480E-20
  55013.456     4.875E-20
  55013.544     5.219E-20
  55013.643     5.627E-20
  55013.720     6.140E-20
  55013.808     6.685E-20
  55013.896     7.351E-20
  55013.971     8.271E-20
  55014.069     9.397E-20
  55014.157     1.056E-19
  55014.245     1.197E-19
  55014.333     1.391E-19
  55014.420     1.650E-19
  55014.509     1.956E-19
  55014.597     2.297E-19
  55014.685     2.645E-19
  55014.773     2.990E-19
  55014.870     3.325E-19
  55014.958     3.623E-19
  55015.046     3.908E-19
  55015.134     4.115E-19
  55015.222     4.179E-19
  55015.310     4.148E-19
  55015.398     4.081E-19
  55015.486     3.933E-19
  55015.574     3.693E-19
  55015.662     3.420E-19
  55015.750     3.162E-19
  55015.838     2.935E-19
  55015.917     2.731E-19
  55016.005     2.506E-19
  55016.093     2.220E-19
  55016.181     1.926E-19
  55016.269     1.684E-19
  55016.359     1.495E-19
  55016.445     1.334E-19
  55016.534     1.195E-19
  55016.622     1.076E-19
  55016.710     9.758E-20
  55016.798     8.904E-20
  55016.875     8.039E-20
  55016.963     7.287E-20
  55017.051     6.835E-20
  55017.153     6.582E-20
  55017.241     6.369E-20
  55017.329     6.196E-20
  55017.417     6.053E-20
  55017.505     5.878E-20
  55017.593     5.677E-20
  55017.681     5.552E-20
  55017.769     5.589E-20
  55017.868     5.670E-20
  55017.945     5.676E-20
  55018.044     5.642E-20
  55018.121     5.607E-20
  55018.209     5.633E-20
  55018.297     5.743E-20
  55018.385     5.859E-20
  55018.473     5.993E-20
  55018.561     6.247E-20
  55018.649     6.689E-20
  55018.723     7.317E-20
  55018.822     8.052E-20
  55018.899     8.791E-20
  55018.998     9.664E-20
  55019.086     1.083E-19
  55019.174     1.226E-19
  55019.262     1.391E-19
  55019.352     1.607E-19
  55019.438     1.884E-19
  55019.526     2.159E-19
  55019.614     2.377E-19
  55019.702     2.564E-19
  55019.790     2.762E-19
  55019.878     2.974E-19
  55019.975     3.164E-19
  55020.063     3.261E-19
  55020.151     3.261E-19
  55020.239     3.221E-19
  55020.327     3.191E-19
  55020.415     3.131E-19
  55020.503     2.961E-19
  55020.582     2.711E-19
  55020.670     2.451E-19
  55020.758     2.214E-19
  55020.846     1.973E-19
  55020.936     1.710E-19
  55021.024     1.470E-19
  55021.111     1.286E-19
  55021.199     1.144E-19
  55021.287     1.035E-19
  55021.375     9.573E-20
  55021.452     8.851E-20
  55021.540     8.130E-20
  55021.628     7.511E-20
  55021.730     7.016E-20
  55021.818     6.650E-20
  55021.906     6.340E-20
  55021.994     6.009E-20
  55022.082     5.711E-20
  55022.181     5.518E-20
  55022.258     5.366E-20
  55022.346     5.219E-20
  55022.434     5.158E-20
  55022.533     5.200E-20
  55022.610     5.294E-20
  55022.709     5.418E-20
  55022.797     5.599E-20
  55022.885     5.852E-20
  55022.962     6.105E-20
  55023.050     6.229E-20
  55023.139     6.228E-20
  55023.227     6.272E-20
  55023.315     6.345E-20
  55023.403     6.303E-20
  55023.491     6.120E-20
  55023.565     5.920E-20
  55023.667     5.828E-20
  55023.755     5.789E-20
  55023.843     5.702E-20
  55023.931     5.610E-20
  55024.019     5.584E-20
  55024.107     5.615E-20
  55024.195     5.635E-20
  55024.283     5.648E-20
  55024.371     5.670E-20
  55024.459     5.769E-20
  55024.547     5.924E-20
  55024.635     5.985E-20
  55024.723     5.880E-20
  55024.811     5.738E-20
  55024.899     5.650E-20
  55024.998     5.576E-20
  55025.075     5.440E-20
  55025.163     5.220E-20
  55025.262     4.957E-20
  55025.350     4.720E-20
  55025.438     4.519E-20
  55025.526     4.288E-20
  55025.604     3.971E-20
  55025.702     3.613E-20
  55025.790     3.324E-20
  55025.878     3.097E-20
  55025.966     2.894E-20
  55026.054     2.728E-20
  55026.142     2.588E-20
  55026.231     2.442E-20
  55026.335     2.325E-20
  55026.423     2.218E-20
  55026.512     2.062E-20
  55026.600     1.850E-20
  55026.688     1.677E-20
  55026.776     1.646E-20
  55026.864     1.627E-20
  55026.952     1.507E-20
  55027.040     1.384E-20
  55027.128     1.361E-20
  55027.216     1.387E-20
  55027.304     1.415E-20
  55027.392     1.433E-20
  55027.480     1.418E-20
  55027.568     1.408E-20
  55027.656     1.377E-20
  55027.744     1.297E-20
  55027.832     1.248E-20
  55027.920     1.242E-20
  55028.008     1.248E-20
  55028.096     1.274E-20
  55028.184     1.320E-20
  55028.272     1.370E-20
  55028.361     1.408E-20
  55028.449     1.373E-20
  55028.537     1.269E-20
  55028.625     1.141E-20
  55028.713     1.078E-20
  55028.801     1.121E-20
  55028.889     1.163E-20
  55028.977     1.146E-20
  55029.065     1.139E-20
  55029.153     1.161E-20
  55029.241     1.202E-20
  55029.329     1.278E-20
  55029.417     1.353E-20
  55029.505     1.385E-20
  55029.593     1.416E-20
  55029.681     1.450E-20
  55029.769     1.474E-20
  55029.857     1.524E-20
  55029.945     1.649E-20
  55030.033     1.814E-20
  55030.122     1.911E-20
  55030.210     1.916E-20
  55030.298     1.885E-20
  55030.386     1.897E-20
  55030.474     1.955E-20
  55030.545     1.970E-20
  55030.650     1.941E-20
  55030.738     1.949E-20
  55030.826     2.022E-20
  55030.914     2.120E-20
  55030.985     2.230E-20
  55031.090     2.328E-20
  55031.161     2.404E-20
  55031.266     2.466E-20
  55031.337     2.520E-20
  55031.425     2.605E-20
  55031.514     2.790E-20
  55031.602     3.056E-20
  55031.690     3.308E-20
  55031.778     3.486E-20
  55031.866     3.685E-20
  55031.954     3.975E-20
  55032.042     4.325E-20
  55032.119     4.666E-20
  55032.218     5.047E-20
  55032.295     5.563E-20
  55032.383     6.142E-20
  55032.472     6.622E-20
  55032.546     7.088E-20
  55032.634     7.873E-20
  55032.722     8.996E-20
  55032.821     1.042E-19
  55032.909     1.216E-19
  55032.997     1.396E-19
  55033.085     1.573E-19
  55033.172     1.797E-19
  55033.261     2.088E-19
  55033.349     2.404E-19
  55033.437     2.716E-19
  55033.525     3.023E-19
  55033.622     3.302E-19
  55033.710     3.506E-19
  55033.798     3.644E-19
  55033.886     3.765E-19
  55033.974     3.833E-19
  55034.062     3.765E-19
  55034.151     3.618E-19
  55034.239     3.508E-19
  55034.327     3.410E-19
  55034.415     3.229E-19
  55034.494     2.994E-19
  55034.582     2.792E-19
  55034.670     2.585E-19
  55034.758     2.325E-19
  55034.846     2.048E-19
  55034.936     1.804E-19
  55035.024     1.599E-19
  55035.112     1.412E-19
  55035.198     1.247E-19
  55035.286     1.121E-19
  55035.375     1.047E-19
  55035.463     1.012E-19
  55035.551     9.871E-20
  55035.628     9.674E-20
  55035.727     9.434E-20
  55035.815     9.240E-20
  55035.903     9.227E-20
  55035.980     9.336E-20
  55036.079     9.484E-20
  55036.167     9.680E-20
  55036.255     1.008E-19
  55036.343     1.080E-19
  55036.431     1.161E-19
  55036.519     1.229E-19
  55036.609     1.328E-19
  55036.696     1.477E-19
  55036.785     1.640E-19
  55036.872     1.803E-19
  55036.960     1.931E-19
  55037.048     1.999E-19
  55037.136     2.039E-19
  55037.224     2.060E-19
  55037.312     2.032E-19
  55037.400     1.978E-19
  55037.488     1.934E-19
  55037.576     1.892E-19
  55037.664     1.838E-19
  55037.752     1.751E-19
  55037.841     1.610E-19
  55037.929     1.447E-19
  55038.017     1.297E-19
  55038.105     1.172E-19
  55038.193     1.063E-19
  55038.270     9.639E-20
  55038.358     8.710E-20
  55038.446     7.779E-20
  55038.548     6.876E-20
  55038.636     6.169E-20
  55038.725     5.730E-20
  55038.813     5.419E-20
  55038.901     5.083E-20
  55038.989     4.743E-20
  55039.077     4.538E-20
  55039.165     4.417E-20
  55039.253     4.241E-20
  55039.352     4.035E-20
  55039.440     3.935E-20
  55039.528     3.947E-20
  55039.616     3.896E-20
  55039.704     3.685E-20
  55039.792     3.418E-20
  55039.880     3.214E-20
  55039.968     3.036E-20
  55040.056     2.847E-20
  55040.144     2.678E-20
  55040.233     2.496E-20
  55040.338     2.281E-20
  55040.426     2.110E-20
  55040.514     2.024E-20
  55040.602     1.974E-20
  55040.690     1.939E-20
  55040.778     1.877E-20
  55040.866     1.785E-20
  55040.954     1.731E-20
  55041.042     1.711E-20
  55041.130     1.657E-20
  55041.218     1.598E-20
  55041.306     1.594E-20
  55041.395     1.623E-20
  55041.483     1.636E-20
  55041.571     1.654E-20
  55041.659     1.660E-20
  55041.747     1.593E-20
  55041.835     1.495E-20
  55041.923     1.471E-20
  55042.011     1.496E-20
  55042.099     1.550E-20
  55042.187     1.616E-20
  55042.275     1.667E-20
  55042.364     1.661E-20
  55042.452     1.593E-20
  55042.540     1.545E-20
  55042.628     1.577E-20
  55042.716     1.680E-20
  55042.804     1.799E-20
  55042.892     1.872E-20
  55042.980     1.922E-20
  55043.068     2.011E-20
  55043.156     2.087E-20
  55043.244     2.110E-20
  55043.333     2.168E-20
  55043.404     2.290E-20
  55043.492     2.394E-20
  55043.580     2.488E-20
  55043.668     2.619E-20
  55043.756     2.773E-20
  55043.844     2.988E-20
  55043.932     3.275E-20
  55044.020     3.579E-20
  55044.109     3.890E-20
  55044.197     4.211E-20
  55044.285     4.555E-20
  55044.362     4.922E-20
  55044.450     5.229E-20
  55044.538     5.566E-20
  55044.626     6.079E-20
  55044.715     6.781E-20
  55044.789     7.593E-20
  55044.888     8.357E-20
  55044.965     9.075E-20
  55045.064     1.006E-19
  55045.152     1.145E-19
  55045.239     1.310E-19
  55045.327     1.462E-19
  55045.418     1.617E-19
  55045.506     1.821E-19
  55045.592     2.086E-19
  55045.680     2.356E-19
  55045.768     2.540E-19
  55045.857     2.633E-19
  55045.945     2.703E-19
  55046.033     2.781E-19
  55046.130     2.831E-19
  55046.209     2.828E-19
  55046.297     2.795E-19
  55046.394     2.733E-19
  55046.473     2.638E-19
  55046.561     2.541E-19
  55046.649     2.443E-19
  55046.738     2.316E-19
  55046.826     2.165E-19
  55046.914     2.002E-19
  55047.002     1.847E-19
  55047.090     1.728E-19
  55047.180     1.651E-19
  55047.268     1.584E-19
  55047.354     1.490E-19
  55047.442     1.360E-19
  55047.531     1.223E-19
  55047.619     1.120E-19
  55047.707     1.041E-19
  55047.795     9.641E-20
  55047.872     8.844E-20
  55047.960     8.204E-20
  55048.049     7.720E-20
  55048.155     7.197E-20
  55048.239     6.627E-20
  55048.327     6.118E-20
  55048.415     5.780E-20
  55048.503     5.660E-20
  55048.591     5.658E-20
  55048.679     5.608E-20
  55048.767     5.543E-20
  55048.855     5.516E-20
  55048.943     5.568E-20
  55049.032     5.684E-20
  55049.120     5.855E-20
  55049.208     6.117E-20
  55049.296     6.458E-20
  55049.384     6.782E-20
  55049.458     6.987E-20
  55049.546     7.047E-20
  55049.635     7.069E-20
  55049.723     7.163E-20
  55049.825     7.370E-20
  55049.899     7.665E-20
  55049.998     7.899E-20
  55050.075     7.983E-20
  55050.163     8.064E-20
  55050.251     8.196E-20
  55050.350     8.444E-20
  55050.438     8.779E-20
  55050.526     9.072E-20
  55050.614     9.350E-20
  55050.703     9.689E-20
  55050.791     1.012E-19
  55050.879     1.062E-19
  55050.967     1.100E-19
  55051.055     1.120E-19
  55051.143     1.135E-19
  55051.233     1.171E-19
  55051.319     1.234E-19
  55051.409     1.290E-19
  55051.496     1.302E-19
  55051.584     1.282E-19
  55051.672     1.266E-19
  55051.760     1.244E-19
  55051.848     1.183E-19
  55051.936     1.098E-19
  55052.024     1.018E-19
  55052.112     9.373E-20
  55052.208     8.421E-20
  55052.292     7.446E-20
  55052.380     6.584E-20
  55052.468     5.810E-20
  55052.556     5.083E-20
  55052.655     4.415E-20
  55052.743     3.909E-20
  55052.831     3.580E-20
  55052.919     3.381E-20
  55053.007     3.236E-20
  55053.096     3.120E-20
  55053.184     3.056E-20
  55053.272     3.072E-20
  55053.360     3.129E-20
  55053.448     3.165E-20
  55053.536     3.147E-20
  55053.624     3.090E-20
  55053.712     3.054E-20
  55053.801     2.994E-20
  55053.889     2.855E-20
  55053.977     2.673E-20
  55054.065     2.510E-20
  55054.153     2.393E-20
  55054.258     2.263E-20
  55054.346     2.085E-20
  55054.434     1.884E-20
  55054.522     1.689E-20
  55054.611     1.541E-20
  55054.699     1.432E-20
  55054.787     1.351E-20
  55054.875     1.318E-20
  55054.963     1.299E-20
  55055.051     1.190E-20
  55055.139     1.014E-20
  55055.227     8.832E-21
  55055.316     8.383E-21
  55055.404     8.428E-21
  55055.492     8.195E-21
  55055.580     7.721E-21
  55055.668     7.339E-21
  55055.755     7.134E-21
  55055.840     6.757E-21
  55055.921     6.133E-21
  55056.028     5.714E-21
  55056.110     5.464E-21
  55056.190     5.063E-21
  55056.268     4.851E-21
  55056.396     4.996E-21
  55056.474     5.118E-21
  55056.550     4.989E-21
  55056.623     4.839E-21
  55056.696     4.728E-21
  55056.769     4.643E-21
  55056.842     4.496E-21
  55056.915     4.418E-21
  55056.988     4.346E-21
  55057.061     4.266E-21
  55057.134     4.260E-21
  55057.207     4.293E-21
  55057.280     4.280E-21
  55057.353     4.329E-21
  55057.426     4.248E-21
  55057.499     4.237E-21
  55057.572     4.235E-21
  55057.645     4.282E-21
  55057.718     4.395E-21
  55057.791     4.586E-21
  55057.864     4.768E-21
  55057.937     5.005E-21
  55058.010     5.243E-21
  55058.083     5.405E-21
  55058.156     5.500E-21
  55058.229     5.551E-21
  55058.302     5.399E-21
  55058.375     5.210E-21
  55058.448     4.964E-21
  55058.521     4.734E-21
  55058.594     4.501E-21
  55058.667     4.172E-21
  55058.740     3.899E-21
  55058.813     3.733E-21
  55058.886     3.611E-21
  55058.959     3.529E-21
  55059.032     3.455E-21
  55059.105     3.385E-21
  55059.178     3.342E-21
  55059.251     3.339E-21
  55059.324     3.335E-21
  55059.397     3.367E-21
  55059.470     3.358E-21
  55059.543     3.355E-21
  55059.616     3.395E-21
  55059.689     3.400E-21
  55059.762     3.452E-21
  55059.835     3.515E-21
  55059.908     3.547E-21
  55059.981     3.619E-21
  55060.054     3.671E-21
  55060.127     3.727E-21
  55060.200     3.780E-21
  55060.273     3.758E-21
  55060.346     3.756E-21
  55060.419     3.752E-21
  55060.492     3.661E-21
  55060.565     3.598E-21
  55060.638     3.571E-21
  55060.711     3.471E-21
  55060.784     3.426E-21
  55060.857     3.340E-21
  55060.930     3.285E-21
  55061.003     3.219E-21
  55061.076     3.122E-21
  55061.149     3.024E-21
  55061.222     2.918E-21
  55061.295     2.853E-21
  55061.368     2.795E-21
  55061.441     2.737E-21
  55061.514     2.685E-21
  55061.587     2.635E-21
  55061.660     2.585E-21
  55061.733     2.590E-21
  55061.806     2.581E-21
  55061.880     2.566E-21
  55061.953     2.562E-21
  55062.026     2.573E-21
  55062.099     2.589E-21
  55062.172     2.592E-21
  55062.245     2.632E-21
  55062.318     2.705E-21
  55062.391     2.792E-21
  55062.464     2.929E-21
  55062.537     3.066E-21
  55062.610     3.196E-21
  55062.683     3.266E-21
  55062.756     3.301E-21
  55062.829     3.319E-21
  55062.902     3.277E-21
  55062.975     3.222E-21
  55063.048     3.182E-21
  55063.121     3.176E-21
  55063.194     3.281E-21
  55063.267     3.430E-21
  55063.340     3.581E-21
  55063.413     3.807E-21
  55063.486     4.092E-21
  55063.559     4.382E-21
  55063.632     4.500E-21
  55063.705     4.498E-21
  55063.778     4.393E-21
  55063.851     4.233E-21
  55063.924     4.005E-21
  55063.997     3.703E-21
  55064.070     3.417E-21
  55064.143     3.095E-21
  55064.216     2.826E-21
  55064.289     2.670E-21
  55064.362     2.526E-21
  55064.435     2.381E-21
  55064.508     2.248E-21
  55064.581     2.161E-21
  55064.654     2.092E-21
  55064.727     2.028E-21
  55064.800     1.990E-21
  55064.873     1.957E-21
  55064.946     1.916E-21
  55065.019     1.899E-21
  55065.092     1.890E-21
  55065.165     1.866E-21
  55065.238     1.844E-21
  55065.311     1.829E-21
  55065.384     1.835E-21
  55065.457     1.846E-21
  55065.530     1.836E-21
  55065.603     1.837E-21
  55065.676     1.836E-21
  55065.749     1.845E-21
  55065.822     1.847E-21
  55065.895     1.855E-21
  55065.968     1.861E-21
  55066.041     1.857E-21
  55066.114     1.862E-21
  55066.188     1.864E-21
  55066.261     1.869E-21
  55066.334     1.863E-21
  55066.407     1.865E-21
  55066.480     1.865E-21
  55066.553     1.858E-21
  55066.626     1.858E-21
  55066.699     1.876E-21
  55066.772     1.930E-21
  55066.845     2.004E-21
  55066.918     2.089E-21
  55066.991     2.171E-21
  55067.064     2.194E-21
  55067.137     2.237E-21
  55067.210     2.214E-21
  55067.283     2.167E-21
  55067.356     2.127E-21
  55067.429     2.081E-21
  55067.502     2.032E-21
  55067.575     2.010E-21
  55067.648     1.973E-21
  55067.721     1.948E-21
  55067.794     1.942E-21
  55067.867     1.936E-21
  55067.940     1.939E-21
  55068.013     1.917E-21
  55068.086     1.901E-21
  55068.159     1.897E-21
  55068.232     1.913E-21
  55068.305     1.925E-21
  55068.378     1.928E-21
  55068.451     1.954E-21
  55068.524     1.978E-21
  55068.597     2.004E-21
  55068.670     2.024E-21
  55068.743     2.045E-21
  55068.816     2.071E-21
  55068.890     2.110E-21
  55068.963     2.169E-21
  55069.036     2.194E-21
  55069.109     2.212E-21
  55069.182     2.229E-21
  55069.255     2.258E-21
  55069.328     2.280E-21
  55069.401     2.315E-21
  55069.474     2.361E-21
  55069.547     2.389E-21
  55069.620     2.429E-21
  55069.693     2.417E-21
  55069.766     2.439E-21
  55069.839     2.487E-21
  55069.912     2.535E-21
  55069.985     2.594E-21
  55070.058     2.638E-21
  55070.131     2.675E-21
  55070.204     2.704E-21
  55070.277     2.774E-21
  55070.350     2.840E-21
  55070.423     2.875E-21
  55070.496     2.961E-21
  55070.569     2.987E-21
  55070.642     3.024E-21
  55070.715     3.099E-21
  55070.788     3.187E-21
  55070.861     3.355E-21
  55070.934     3.492E-21
  55071.007     3.594E-21
  55072.052     6.909E-21
  55072.140     7.916E-21
  55072.229     9.625E-21
  55072.317     1.122E-20
  55072.406     1.252E-20
  55072.494     1.411E-20
  55072.583     1.595E-20
  55072.671     1.743E-20
  55072.760     1.893E-20
  55072.844     2.077E-20
  55072.937     2.199E-20
  55073.025     2.302E-20
  55073.109     2.526E-20
  55073.198     2.876E-20
  55073.286     3.261E-20
  55073.375     3.667E-20
  55073.463     4.060E-20
  55073.552     4.372E-20
  55073.640     4.647E-20
  55073.729     4.922E-20
  55073.824     5.039E-20
  55073.906     4.926E-20
  55074.001     4.739E-20
  55074.083     4.591E-20
  55074.171     4.422E-20
  55074.260     4.174E-20
  55074.348     3.953E-20
  55074.437     3.825E-20
  55074.525     3.781E-20
  55074.614     3.903E-20
  55074.702     4.190E-20
  55074.798     4.467E-20
  55074.879     4.598E-20
  55074.968     4.648E-20
  55075.056     4.752E-20
  55075.145     4.915E-20
  55075.240     5.014E-20
  55075.322     5.018E-20
  55075.418     4.986E-20
  55075.499     4.956E-20
  55075.595     4.863E-20
  55075.676     4.654E-20
  55075.764     4.426E-20
  55075.853     4.197E-20
  55075.941     3.946E-20
  55076.030     3.684E-20
  55076.118     3.402E-20
  55076.207     3.125E-20
  55076.295     2.923E-20
  55076.384     2.750E-20
  55076.472     2.518E-20
  55076.565     2.252E-20
  55076.654     2.076E-20
  55076.738     2.013E-20
  55076.831     1.942E-20
  55076.919     1.797E-20
  55077.008     1.637E-20
  55077.096     1.489E-20
  55077.185     1.372E-20
  55077.273     1.326E-20
  55077.362     1.279E-20
  55077.496     1.146E-20
  55078.054     8.521E-21
  55078.945     7.017E-21
  55079.262     4.749E-21
  55079.335     4.481E-21
  55079.408     4.177E-21
  55079.481     3.949E-21
  55079.554     3.787E-21
  55079.627     3.634E-21
  55079.700     3.502E-21
  55079.773     3.346E-21
  55079.846     3.215E-21
  55079.920     3.051E-21
  55079.993     2.936E-21
  55080.066     2.857E-21
  55080.139     2.784E-21
  55080.212     2.680E-21
  55080.285     2.640E-21
  55080.358     2.601E-21
  55080.431     2.587E-21
  55080.504     2.544E-21
  55080.577     2.512E-21
  55080.650     2.515E-21
  55080.723     2.480E-21
  55080.796     2.460E-21
  55080.869     2.476E-21
  55080.942     2.482E-21
  55081.015     2.485E-21
  55081.089     2.472E-21
  55081.162     2.485E-21
  55081.235     2.500E-21
  55081.308     2.501E-21
  55081.381     2.517E-21
  55081.454     2.566E-21
  55081.527     2.627E-21
  55081.600     2.749E-21
  55081.673     2.880E-21
  55081.746     3.039E-21
  55081.819     3.154E-21
  55081.892     3.232E-21
  55081.965     3.309E-21
  55082.038     3.306E-21
  55082.111     3.223E-21
  55082.185     3.094E-21
  55082.258     2.950E-21
  55082.331     2.757E-21
  55082.404     2.581E-21
  55082.477     2.430E-21
  55082.550     2.255E-21
  55082.623     2.127E-21
  55082.696     2.036E-21
  55082.769     1.960E-21
  55082.842     1.901E-21
  55082.915     1.857E-21
  55082.988     1.822E-21
  55083.061     1.808E-21
  55083.134     1.792E-21
  55083.208     1.765E-21
  55083.281     1.745E-21
  55083.354     1.717E-21
  55083.427     1.705E-21
  55083.500     1.698E-21
  55083.573     1.701E-21
  55083.646     1.707E-21
  55083.719     1.695E-21
  55083.792     1.705E-21
  55083.865     1.725E-21
  55083.938     1.738E-21
  55084.011     1.752E-21
  55084.084     1.778E-21
  55084.157     1.794E-21
  55084.231     1.826E-21
  55084.304     1.861E-21
  55084.377     1.878E-21
  55084.450     1.883E-21
  55084.523     1.902E-21
  55084.596     1.927E-21
  55084.669     1.976E-21
  55084.742     2.017E-21
  55084.815     2.044E-21
  55084.888     2.094E-21
  55084.961     2.136E-21
  55085.034     2.202E-21
  55085.107     2.264E-21
  55085.181     2.335E-21
  55085.254     2.410E-21
  55085.327     2.488E-21
  55085.984     4.777E-21
  55086.129     6.573E-21
  55086.210     8.122E-21
  55086.301     9.586E-21
  55086.390     1.029E-20
  55086.478     1.172E-20
  55086.567     1.287E-20
  55086.655     1.287E-20
  55086.744     1.241E-20
  55086.832     1.187E-20
  55086.921     1.087E-20
  55087.009     1.038E-20
  55087.098     1.042E-20
  55087.186     9.595E-21
  55087.275     7.817E-21
  55087.363     6.302E-21
  55087.452     5.669E-21
  55087.540     5.272E-21
  55087.629     4.593E-21
  55087.717     4.176E-21
  55087.806     4.903E-21
  55087.894     6.438E-21
  55087.983     7.659E-21
  55088.071     7.832E-21
  55088.160     7.482E-21
  55088.248     7.141E-21
  55088.337     7.011E-21
  55088.425     7.293E-21
  55088.514     7.870E-21
  55088.602     8.786E-21
  55088.691     9.720E-21
  55088.779     1.015E-20
  55088.868     1.022E-20
  55088.956     1.024E-20
  55089.045     1.024E-20
  55089.133     1.025E-20
  55089.222     1.039E-20
  55089.310     1.004E-20
  55089.399     9.191E-21
  55089.487     8.871E-21
  55089.576     8.967E-21
  55089.664     9.114E-21
  55089.753     9.529E-21
  55089.841     1.018E-20
  55089.930     1.063E-20
  55090.018     1.077E-20
  55090.107     1.067E-20
  55090.195     1.051E-20
  55090.284     1.050E-20
  55090.372     1.068E-20
  55090.461     1.077E-20
  55090.549     1.014E-20
  55090.638     8.905E-21
  55090.726     7.730E-21
  55090.815     7.095E-21
  55090.903     6.786E-21
  55090.992     6.746E-21
  55091.080     6.979E-21
  55091.169     6.919E-21
  55091.257     6.631E-21
  55091.427     5.626E-21
  55092.318     6.901E-21
  55093.210     9.953E-21
  55093.293     1.176E-20
  55093.382     1.191E-20
  55093.470     1.237E-20
  55093.559     1.306E-20
  55093.647     1.390E-20
  55093.736     1.442E-20
  55093.824     1.440E-20
  55093.913     1.469E-20
  55094.001     1.577E-20
  55094.090     1.790E-20
  55094.178     2.136E-20
  55094.262     2.526E-20
  55094.351     2.828E-20
  55094.444     3.068E-20
  55094.528     3.378E-20
  55094.616     3.818E-20
  55094.705     4.400E-20
  55094.800     5.127E-20
  55094.889     5.882E-20
  55094.977     6.578E-20
  55095.066     7.196E-20
  55095.154     7.812E-20
  55095.243     8.387E-20
  55095.333     8.765E-20
  55095.421     8.761E-20
  55095.510     8.476E-20
  55095.598     8.209E-20
  55095.687     8.050E-20
  55095.774     7.978E-20
  55095.864     8.017E-20
  55095.952     8.133E-20
  55096.039     8.222E-20
  55096.128     8.279E-20
  55096.218     8.359E-20
  55096.306     8.428E-20
  55096.395     8.446E-20
  55096.483     8.451E-20
  55096.570     8.476E-20
  55096.660     8.544E-20
  55096.749     8.454E-20
  55096.837     8.096E-20
  55096.926     7.624E-20
  55097.013     7.231E-20
  55097.101     6.817E-20
  55097.190     6.321E-20
  55097.278     5.833E-20
  55097.367     5.372E-20
  55097.448     4.889E-20
  55097.537     4.372E-20
  55097.625     3.886E-20
  55097.714     3.445E-20
  55097.802     3.034E-20
  55097.891     2.742E-20
  55097.979     2.584E-20
  55098.072     2.436E-20
  55098.161     2.256E-20
  55098.245     2.098E-20
  55098.338     1.944E-20
  55098.426     1.798E-20
  55098.515     1.682E-20
  55098.603     1.562E-20
  55098.692     1.428E-20
  55098.780     1.292E-20
  55098.869     1.151E-20
  55098.957     1.050E-20
  55099.046     1.023E-20
  55099.134     1.059E-20
  55099.223     1.087E-20
  55099.311     1.111E-20
  55099.400     1.119E-20
  55099.488     1.078E-20
  55099.577     1.059E-20
  55099.665     1.090E-20
  55099.754     1.089E-20
  55099.842     1.066E-20
  55099.931     1.099E-20
  55100.019     1.144E-20
  55100.108     1.084E-20
  55100.196     9.261E-21
  55100.285     8.030E-21
  55100.346     7.078E-21
  55100.782     4.982E-21
  55101.335     3.085E-21
  55101.409     3.006E-21
  55101.482     2.944E-21
  55101.555     2.878E-21
  55101.628     2.782E-21
  55101.701     2.737E-21
  55101.774     2.676E-21
  55101.847     2.610E-21
  55101.920     2.527E-21
  55101.994     2.451E-21
  55102.067     2.363E-21
  55102.140     2.321E-21
  55102.213     2.273E-21
  55102.286     2.237E-21
  55102.359     2.193E-21
  55102.432     2.134E-21
  55102.505     2.078E-21
  55102.579     2.041E-21
  55102.652     2.014E-21
  55102.725     1.968E-21
  55102.798     1.916E-21
  55102.871     1.875E-21
  55102.944     1.858E-21
  55103.017     1.830E-21
  55103.090     1.794E-21
  55103.164     1.773E-21
  55103.237     1.741E-21
  55103.310     1.722E-21
  55103.383     1.694E-21
  55103.456     1.645E-21
  55103.529     1.619E-21
  55103.602     1.600E-21
  55103.676     1.599E-21
  55103.749     1.597E-21
  55103.822     1.586E-21
  55103.895     1.597E-21
  55103.968     1.604E-21
  55104.041     1.619E-21
  55104.114     1.634E-21
  55104.187     1.652E-21
  55104.261     1.656E-21
  55104.334     1.655E-21
  55104.407     1.637E-21
  55104.480     1.615E-21
  55104.553     1.587E-21
  55104.626     1.567E-21
  55104.699     1.541E-21
  55104.772     1.512E-21
  55104.846     1.501E-21
  55104.919     1.493E-21
  55104.992     1.478E-21
  55105.065     1.477E-21
  55105.138     1.502E-21
  55105.211     1.565E-21
  55105.284     1.637E-21
  55105.358     1.715E-21
  55105.431     1.761E-21
  55105.504     1.801E-21
  55105.577     1.836E-21
  55105.650     1.838E-21
  55105.723     1.834E-21
  55105.796     1.853E-21
  55105.869     1.869E-21
  55105.943     1.886E-21
  55106.016     1.922E-21
  55106.089     1.983E-21
  55106.162     2.077E-21
  55106.235     2.246E-21
  55106.308     2.442E-21
  55106.381     2.652E-21
  55106.455     2.857E-21
  55106.528     3.018E-21
  55106.601     3.213E-21
  55106.674     3.257E-21
  55106.747     3.183E-21
  55106.820     3.054E-21
  55106.893     2.823E-21
  55106.967     2.594E-21
  55107.040     2.340E-21
  55107.113     2.128E-21
  55107.186     1.974E-21
  55107.259     1.854E-21
  55107.332     1.763E-21
  55107.405     1.685E-21
  55107.478     1.632E-21
  55107.552     1.593E-21
  55107.625     1.573E-21
  55107.698     1.584E-21
  55107.771     1.614E-21
  55107.844     1.663E-21
  55107.917     1.725E-21
  55107.990     1.807E-21
  55108.064     1.911E-21
  55108.137     1.997E-21
  55108.210     2.068E-21
  55108.283     2.051E-21
  55108.356     2.015E-21
  55108.429     1.934E-21
  55108.502     1.818E-21
  55108.576     1.689E-21
  55108.649     1.566E-21
  55108.722     1.461E-21
  55108.795     1.368E-21
  55108.868     1.290E-21
  55108.941     1.224E-21
  55109.014     1.188E-21
  55109.088     1.159E-21
  55109.161     1.150E-21
  55109.234     1.156E-21
  55109.307     1.175E-21
  55109.380     1.203E-21
  55109.453     1.229E-21
  55109.526     1.238E-21
  55109.600     1.239E-21
  55109.673     1.225E-21
  55109.746     1.199E-21
  55109.819     1.172E-21
  55109.892     1.151E-21
  55109.965     1.141E-21
  55110.039     1.144E-21
  55110.112     1.147E-21
  55110.185     1.156E-21
  55110.258     1.184E-21
  55110.331     1.219E-21
  55110.404     1.283E-21
  55110.477     1.375E-21
  55110.551     1.472E-21
  55110.624     1.603E-21
  55110.697     1.788E-21
  55110.770     2.006E-21
  55110.843     2.236E-21
  55110.916     2.459E-21
  55110.989     2.606E-21
  55111.063     2.687E-21
  55111.136     2.679E-21
  55111.209     2.626E-21
  55111.282     2.500E-21
  55111.355     2.342E-21
  55111.428     2.185E-21
  55111.501     2.073E-21
  55111.575     1.962E-21
  55111.648     1.969E-21
  55111.721     2.084E-21
  55111.794     2.247E-21
  55111.867     2.520E-21
  55111.940     2.765E-21
  55112.014     2.973E-21
  55112.087     3.149E-21
  55112.160     3.216E-21
  55112.233     3.124E-21
  55112.306     2.900E-21
  55112.379     2.665E-21
  55112.452     2.367E-21
  55112.526     2.109E-21
  55112.599     1.844E-21
  55112.672     1.629E-21
  55112.745     1.465E-21
  55112.818     1.332E-21
  55112.891     1.226E-21
  55112.965     1.152E-21
  55113.038     1.088E-21
  55113.111     1.052E-21
  55113.185     1.027E-21
  55113.258     1.012E-21
  55113.332     9.964E-22
  55113.405     9.999E-22
  55113.480     1.010E-21
  55113.553     1.024E-21
  55113.626     1.010E-21
  55113.700     9.844E-22
  55113.773     9.572E-22
  55113.847     9.280E-22
  55113.921     8.938E-22
  55113.995     8.657E-22
  55114.068     8.283E-22
  55114.142     7.967E-22
  55114.215     7.764E-22
  55114.289     7.618E-22
  55114.363     7.480E-22
  55114.436     7.376E-22
  55114.510     7.298E-22
  55114.583     7.270E-22
  55114.657     7.226E-22
  55114.730     7.179E-22
  55114.804     7.144E-22
  55114.878     7.136E-22
  55114.951     7.037E-22
