#  O2 xsec;CfA;O2WB9X0;300 K;54260-54685 cm-1;5022 pts         
#    WNO      SIGMA
  54260.024     1.777E-22
  54260.095     1.788E-22
  54260.166     1.789E-22
  54260.236     1.780E-22
  54260.307     1.773E-22
  54260.377     1.771E-22
  54260.448     1.767E-22
  54260.518     1.766E-22
  54260.589     1.766E-22
  54260.660     1.769E-22
  54260.730     1.763E-22
  54260.801     1.750E-22
  54260.871     1.740E-22
  54260.942     1.725E-22
  54261.012     1.711E-22
  54261.083     1.705E-22
  54261.154     1.705E-22
  54261.224     1.709E-22
  54261.295     1.717E-22
  54261.365     1.723E-22
  54261.436     1.730E-22
  54261.506     1.737E-22
  54261.577     1.739E-22
  54261.648     1.746E-22
  54261.718     1.763E-22
  54261.789     1.786E-22
  54261.859     1.824E-22
  54261.930     1.881E-22
  54262.000     1.954E-22
  54262.071     2.035E-22
  54262.142     2.117E-22
  54262.212     2.177E-22
  54262.283     2.205E-22
  54262.353     2.191E-22
  54262.424     2.142E-22
  54262.495     2.071E-22
  54262.566     1.995E-22
  54262.637     1.927E-22
  54262.707     1.871E-22
  54262.778     1.831E-22
  54262.848     1.809E-22
  54262.919     1.796E-22
  54262.990     1.789E-22
  54263.060     1.777E-22
  54263.131     1.768E-22
  54263.201     1.759E-22
  54263.272     1.755E-22
  54263.343     1.760E-22
  54263.414     1.768E-22
  54263.485     1.776E-22
  54263.555     1.780E-22
  54263.626     1.785E-22
  54263.696     1.788E-22
  54263.767     1.790E-22
  54263.837     1.792E-22
  54263.908     1.795E-22
  54263.979     1.796E-22
  54264.049     1.798E-22
  54264.120     1.802E-22
  54264.191     1.802E-22
  54264.262     1.793E-22
  54264.332     1.785E-22
  54264.403     1.783E-22
  54264.473     1.783E-22
  54264.544     1.787E-22
  54264.615     1.796E-22
  54264.685     1.808E-22
  54264.756     1.819E-22
  54264.827     1.831E-22
  54264.897     1.837E-22
  54264.968     1.840E-22
  54265.039     1.844E-22
  54265.109     1.848E-22
  54265.180     1.854E-22
  54265.251     1.857E-22
  54265.321     1.858E-22
  54265.392     1.860E-22
  54265.462     1.859E-22
  54265.533     1.856E-22
  54265.604     1.857E-22
  54265.675     1.863E-22
  54265.745     1.873E-22
  54265.816     1.885E-22
  54265.887     1.902E-22
  54265.957     1.927E-22
  54266.028     1.955E-22
  54266.098     1.985E-22
  54266.169     2.021E-22
  54266.239     2.064E-22
  54266.310     2.116E-22
  54266.381     2.177E-22
  54266.451     2.250E-22
  54266.523     2.333E-22
  54266.593     2.420E-22
  54266.664     2.504E-22
  54266.734     2.565E-22
  54266.805     2.590E-22
  54266.875     2.590E-22
  54266.946     2.586E-22
  54267.017     2.590E-22
  54267.087     2.616E-22
  54267.158     2.669E-22
  54267.228     2.752E-22
  54267.299     2.852E-22
  54267.369     2.955E-22
  54267.440     3.047E-22
  54267.512     3.113E-22
  54267.582     3.148E-22
  54267.653     3.159E-22
  54267.723     3.146E-22
  54267.794     3.103E-22
  54267.864     3.045E-22
  54267.935     2.987E-22
  54268.005     2.945E-22
  54268.076     2.925E-22
  54268.147     2.917E-22
  54268.217     2.896E-22
  54268.288     2.872E-22
  54268.358     2.854E-22
  54268.429     2.851E-22
  54268.499     2.835E-22
  54268.570     2.804E-22
  54268.641     2.844E-22
  54268.711     2.914E-22
  54268.782     2.975E-22
  54268.852     3.040E-22
  54268.922     3.110E-22
  54268.992     3.155E-22
  54269.063     3.295E-22
  54269.133     3.511E-22
  54269.203     3.755E-22
  54269.273     4.099E-22
  54269.343     4.394E-22
  54269.413     5.120E-22
  54269.483     6.210E-22
  54269.553     7.425E-22
  54269.623     9.348E-22
  54269.693     1.088E-21
  54269.763     1.182E-21
  54269.833     1.249E-21
  54269.904     1.241E-21
  54269.974     1.143E-21
  54270.044     9.923E-22
  54270.114     8.184E-22
  54270.184     6.859E-22
  54270.255     5.851E-22
  54270.326     4.962E-22
  54270.397     4.097E-22
  54270.468     3.558E-22
  54270.539     3.259E-22
  54270.610     3.064E-22
  54270.682     2.936E-22
  54270.754     2.876E-22
  54270.825     2.884E-22
  54270.897     2.896E-22
  54270.968     2.956E-22
  54271.040     3.012E-22
  54271.109     3.126E-22
  54271.178     3.292E-22
  54271.248     3.452E-22
  54271.317     3.714E-22
  54271.386     4.012E-22
  54271.454     4.430E-22
  54271.524     5.107E-22
  54271.592     6.047E-22
  54271.661     7.279E-22
  54271.730     8.734E-22
  54271.869     1.166E-21
  54271.939     1.232E-21
  54272.009     1.257E-21
  54272.079     1.228E-21
  54272.149     1.148E-21
  54272.219     1.026E-21
  54272.290     9.078E-22
  54272.360     8.179E-22
  54272.430     7.357E-22
  54272.500     6.782E-22
  54272.570     6.745E-22
  54272.640     7.067E-22
  54272.711     7.506E-22
  54272.781     8.214E-22
  54272.851     9.118E-22
  54272.921     1.023E-21
  54272.991     1.116E-21
  54273.062     1.153E-21
  54273.132     1.167E-21
  54273.202     1.133E-21
  54273.272     1.045E-21
  54273.342     9.332E-22
  54273.414     8.097E-22
  54273.487     7.041E-22
  54273.559     6.050E-22
  54273.631     5.260E-22
  54273.703     4.598E-22
  54273.775     4.109E-22
  54273.848     3.810E-22
  54273.921     3.553E-22
  54273.993     3.424E-22
  54274.066     3.288E-22
  54274.138     3.189E-22
  54274.211     3.103E-22
  54274.284     3.023E-22
  54274.357     2.976E-22
  54274.427     2.946E-22
  54274.498     2.928E-22
  54274.569     2.903E-22
  54274.639     2.878E-22
  54274.710     2.858E-22
  54274.780     2.847E-22
  54274.851     2.848E-22
  54274.921     2.855E-22
  54274.992     2.854E-22
  54275.063     2.860E-22
  54275.133     2.882E-22
  54275.204     2.918E-22
  54275.274     2.954E-22
  54275.345     2.980E-22
  54275.415     2.999E-22
  54275.486     3.023E-22
  54275.557     3.067E-22
  54275.627     3.138E-22
  54275.698     3.221E-22
  54275.768     3.302E-22
  54275.839     3.395E-22
  54275.910     3.507E-22
  54275.980     3.639E-22
  54276.051     3.793E-22
  54276.121     3.969E-22
  54276.192     4.157E-22
  54276.262     4.351E-22
  54276.333     4.543E-22
  54276.404     4.711E-22
  54276.474     4.844E-22
  54276.545     4.928E-22
  54276.615     4.973E-22
  54276.686     5.001E-22
  54276.757     5.020E-22
  54276.827     5.018E-22
  54276.898     5.005E-22
  54276.968     4.978E-22
  54277.039     4.945E-22
  54277.110     4.919E-22
  54277.182     4.910E-22
  54277.254     4.897E-22
  54277.325     4.895E-22
  54277.397     4.928E-22
  54277.468     5.001E-22
  54277.540     5.100E-22
  54277.611     5.115E-22
  54277.682     5.133E-22
  54277.754     5.097E-22
  54277.825     5.082E-22
  54277.896     5.179E-22
  54277.967     5.307E-22
  54278.038     5.545E-22
  54278.109     5.847E-22
  54278.180     6.364E-22
  54278.252     7.000E-22
  54278.323     7.475E-22
  54278.394     8.358E-22
  54278.464     9.763E-22
  54278.535     1.169E-21
  54278.605     1.446E-21
  54278.676     1.628E-21
  54278.746     1.770E-21
  54278.816     1.864E-21
  54278.886     1.901E-21
  54278.956     1.884E-21
  54279.027     1.831E-21
  54279.097     1.699E-21
  54279.167     1.540E-21
  54279.237     1.361E-21
  54279.307     1.216E-21
  54279.377     1.110E-21
  54279.448     1.032E-21
  54279.518     9.778E-22
  54279.588     9.612E-22
  54279.658     9.878E-22
  54279.728     1.021E-21
  54279.798     1.073E-21
  54279.869     1.136E-21
  54279.939     1.206E-21
  54280.009     1.262E-21
  54280.079     1.332E-21
  54280.149     1.375E-21
  54280.220     1.397E-21
  54280.290     1.401E-21
  54280.360     1.384E-21
  54280.430     1.355E-21
  54280.500     1.316E-21
  54280.570     1.288E-21
  54280.641     1.269E-21
  54280.711     1.257E-21
  54280.781     1.219E-21
  54280.851     1.201E-21
  54280.921     1.182E-21
  54280.991     1.168E-21
  54281.062     1.161E-21
  54281.132     1.161E-21
  54281.202     1.182E-21
  54281.272     1.258E-21
  54281.342     1.205E-21
  54281.413     1.174E-21
  54281.483     1.161E-21
  54281.553     1.140E-21
  54281.623     1.122E-21
  54281.693     1.095E-21
  54281.763     1.063E-21
  54281.834     1.042E-21
  54281.904     1.022E-21
  54281.974     1.002E-21
  54282.044     9.815E-22
  54282.114     9.569E-22
  54282.184     9.552E-22
  54282.255     9.457E-22
  54282.325     9.352E-22
  54282.395     9.354E-22
  54282.465     9.522E-22
  54282.535     9.767E-22
  54282.606     1.001E-21
  54282.676     1.033E-21
  54282.746     1.071E-21
  54282.816     1.077E-21
  54282.886     1.090E-21
  54282.956     1.110E-21
  54283.027     1.159E-21
  54283.097     1.226E-21
  54283.167     1.276E-21
  54283.237     1.323E-21
  54283.307     1.352E-21
  54283.377     1.354E-21
  54283.448     1.321E-21
  54283.518     1.294E-21
  54283.588     1.289E-21
  54283.658     1.307E-21
  54283.728     1.311E-21
  54283.799     1.325E-21
  54283.869     1.356E-21
  54283.939     1.393E-21
  54284.009     1.447E-21
  54284.079     1.489E-21
  54284.149     1.550E-21
  54284.220     1.568E-21
  54284.290     1.660E-21
  54284.360     1.749E-21
  54284.430     1.793E-21
  54284.500     1.875E-21
  54284.570     1.965E-21
  54284.641     2.043E-21
  54284.711     2.127E-21
  54284.781     2.207E-21
  54284.851     2.293E-21
  54284.921     2.432E-21
  54284.992     2.565E-21
  54285.062     2.710E-21
  54285.132     2.874E-21
  54285.413     3.622E-21
  54285.554     4.387E-21
  54285.629     4.952E-21
  54285.706     5.533E-21
  54285.827     6.470E-21
  54285.904     7.353E-21
  54285.984     8.853E-21
  54286.067     1.133E-20
  54286.177     1.459E-20
  54286.261     1.809E-20
  54286.346     2.123E-20
  54286.432     2.425E-20
  54286.517     2.695E-20
  54286.602     2.946E-20
  54286.687     3.175E-20
  54286.767     3.341E-20
  54286.852     3.417E-20
  54286.937     3.398E-20
  54287.022     3.308E-20
  54287.108     3.198E-20
  54287.199     3.117E-20
  54287.278     3.087E-20
  54287.363     3.057E-20
  54287.449     2.987E-20
  54287.534     2.901E-20
  54287.619     2.794E-20
  54287.711     2.682E-20
  54287.790     2.613E-20
  54287.875     2.563E-20
  54287.960     2.492E-20
  54288.052     2.375E-20
  54288.131     2.185E-20
  54288.222     1.961E-20
  54288.291     1.765E-20
  54288.377     1.612E-20
  54288.462     1.496E-20
  54288.547     1.406E-20
  54288.632     1.292E-20
  54288.718     1.132E-20
  54288.801     9.910E-21
  54288.882     8.910E-21
  54288.978     8.044E-21
  54289.060     7.529E-21
  54289.139     7.193E-21
  54289.216     6.795E-21
  54289.331     6.034E-21
  54289.400     5.145E-21
  54289.485     4.508E-21
  54289.570     4.291E-21
  54289.656     4.226E-21
  54289.741     4.041E-21
  54289.828     3.478E-21
  54290.636     2.238E-21
  54291.496     1.557E-21
  54292.330     1.395E-21
  54293.190     1.294E-21
  54294.051     1.458E-21
  54294.516     1.738E-21
  54294.601     2.132E-21
  54294.686     2.257E-21
  54294.772     2.346E-21
  54294.857     2.653E-21
  54294.942     2.912E-21
  54295.027     3.002E-21
  54295.113     3.113E-21
  54295.198     3.203E-21
  54295.283     3.255E-21
  54295.368     3.340E-21
  54295.454     3.559E-21
  54295.539     3.619E-21
  54295.624     3.478E-21
  54295.709     3.547E-21
  54295.795     3.827E-21
  54295.880     4.074E-21
  54295.965     4.136E-21
  54296.050     3.944E-21
  54296.136     3.817E-21
  54296.221     4.047E-21
  54296.306     4.355E-21
  54296.391     4.230E-21
  54296.477     3.955E-21
  54296.562     4.081E-21
  54296.647     4.454E-21
  54296.732     4.472E-21
  54296.818     4.428E-21
  54296.903     4.956E-21
  54296.988     5.727E-21
  54297.074     6.341E-21
  54297.159     6.964E-21
  54297.244     7.927E-21
  54297.329     9.184E-21
  54297.415     1.053E-20
  54297.500     1.182E-20
  54297.585     1.324E-20
  54297.670     1.509E-20
  54297.772     1.721E-20
  54297.857     1.954E-20
  54297.942     2.262E-20
  54298.028     2.696E-20
  54298.113     3.215E-20
  54298.192     3.777E-20
  54298.277     4.366E-20
  54298.363     4.904E-20
  54298.448     5.354E-20
  54298.538     5.735E-20
  54298.623     6.019E-20
  54298.709     6.161E-20
  54298.794     6.146E-20
  54298.879     5.987E-20
  54298.964     5.764E-20
  54299.045     5.561E-20
  54299.135     5.440E-20
  54299.220     5.390E-20
  54299.306     5.292E-20
  54299.391     5.014E-20
  54299.471     4.547E-20
  54299.556     4.125E-20
  54299.641     3.841E-20
  54299.727     3.556E-20
  54299.812     3.242E-20
  54299.897     2.957E-20
  54299.989     2.691E-20
  54300.068     2.388E-20
  54300.159     2.094E-20
  54300.244     1.911E-20
  54300.313     1.766E-20
  54300.398     1.548E-20
  54300.484     1.324E-20
  54300.569     1.195E-20
  54300.654     1.118E-20
  54300.739     1.050E-20
  54300.825     9.828E-21
  54300.910     9.056E-21
  54300.995     8.173E-21
  54301.080     7.396E-21
  54301.166     6.735E-21
  54301.251     6.228E-21
  54301.342     5.047E-21
  54301.414     4.592E-21
  54301.553     4.047E-21
  54301.623     3.843E-21
  54301.693     3.604E-21
  54301.764     3.438E-21
  54301.834     3.305E-21
  54301.904     3.166E-21
  54301.974     3.053E-21
  54302.044     2.953E-21
  54302.115     2.844E-21
  54302.185     2.780E-21
  54302.255     2.704E-21
  54302.325     2.619E-21
  54302.395     2.517E-21
  54302.465     2.406E-21
  54302.536     2.344E-21
  54302.606     2.306E-21
  54302.676     2.234E-21
  54302.746     2.197E-21
  54302.816     2.158E-21
  54302.886     2.089E-21
  54302.957     2.040E-21
  54303.027     2.000E-21
  54303.097     1.949E-21
  54303.167     1.884E-21
  54303.237     1.838E-21
  54303.308     1.801E-21
  54303.378     1.722E-21
  54303.448     1.697E-21
  54303.518     1.663E-21
  54303.588     1.600E-21
  54303.658     1.579E-21
  54303.729     1.567E-21
  54303.799     1.546E-21
  54303.869     1.582E-21
  54303.939     1.587E-21
  54304.009     1.572E-21
  54304.079     1.527E-21
  54304.150     1.550E-21
  54304.220     1.633E-21
  54304.290     1.787E-21
  54304.360     1.937E-21
  54304.430     2.089E-21
  54304.501     2.290E-21
  54304.571     2.541E-21
  54304.641     2.905E-21
  54304.711     3.248E-21
  54304.781     3.601E-21
  54304.851     3.946E-21
  54304.922     4.184E-21
  54304.992     4.233E-21
  54305.062     4.134E-21
  54305.132     3.849E-21
  54305.202     3.494E-21
  54305.272     3.205E-21
  54305.343     2.959E-21
  54305.413     2.710E-21
  54305.483     2.523E-21
  54305.553     2.486E-21
  54305.623     2.467E-21
  54305.693     2.538E-21
  54305.764     2.648E-21
  54305.834     2.800E-21
  54305.904     2.900E-21
  54305.974     3.008E-21
  54306.044     3.109E-21
  54306.115     3.196E-21
  54306.185     3.262E-21
  54306.255     3.259E-21
  54306.325     3.222E-21
  54306.395     3.186E-21
  54306.465     3.106E-21
  54306.536     3.034E-21
  54306.606     2.902E-21
  54306.676     2.748E-21
  54306.746     2.640E-21
  54306.816     2.532E-21
  54306.886     2.463E-21
  54306.957     2.417E-21
  54307.027     2.352E-21
  54307.097     2.326E-21
  54307.167     2.296E-21
  54307.237     2.259E-21
  54307.308     2.173E-21
  54307.378     2.065E-21
  54307.448     1.947E-21
  54307.518     1.853E-21
  54307.588     1.750E-21
  54307.658     1.628E-21
  54307.729     1.477E-21
  54307.799     1.368E-21
  54307.869     1.283E-21
  54307.939     1.210E-21
  54308.009     1.133E-21
  54308.079     1.067E-21
  54308.150     1.007E-21
  54308.220     9.614E-22
  54308.290     8.990E-22
  54308.360     8.606E-22
  54308.430     8.297E-22
  54308.501     7.977E-22
  54308.571     7.732E-22
  54308.641     7.332E-22
  54308.711     7.051E-22
  54308.781     6.860E-22
  54308.851     6.566E-22
  54308.922     6.318E-22
  54308.992     6.037E-22
  54309.062     5.959E-22
  54309.132     5.735E-22
  54309.202     5.637E-22
  54309.272     5.391E-22
  54309.343     5.296E-22
  54309.413     5.190E-22
  54309.483     4.999E-22
  54309.553     5.014E-22
  54309.624     4.914E-22
  54309.695     4.877E-22
  54309.766     4.698E-22
  54309.837     4.645E-22
  54309.908     4.606E-22
  54309.979     4.537E-22
  54310.050     4.323E-22
  54310.122     4.184E-22
  54310.193     4.150E-22
  54310.265     4.144E-22
  54310.335     4.112E-22
  54310.407     4.051E-22
  54310.479     3.928E-22
  54310.550     3.810E-22
  54310.622     3.771E-22
  54310.694     3.737E-22
  54310.765     3.678E-22
  54310.837     3.612E-22
  54310.909     3.543E-22
  54310.980     3.492E-22
  54311.052     3.448E-22
  54311.123     3.404E-22
  54311.193     3.363E-22
  54311.264     3.319E-22
  54311.335     3.287E-22
  54311.405     3.267E-22
  54311.476     3.250E-22
  54311.547     3.240E-22
  54311.617     3.212E-22
  54311.688     3.165E-22
  54311.759     3.124E-22
  54311.829     3.087E-22
  54311.900     3.056E-22
  54311.971     3.037E-22
  54312.041     3.017E-22
  54312.112     2.989E-22
  54312.183     2.970E-22
  54312.253     2.958E-22
  54312.324     2.944E-22
  54312.395     2.929E-22
  54312.465     2.911E-22
  54312.536     2.890E-22
  54312.607     2.871E-22
  54312.677     2.852E-22
  54312.748     2.830E-22
  54312.819     2.811E-22
  54312.889     2.806E-22
  54312.960     2.808E-22
  54313.031     2.808E-22
  54313.101     2.808E-22
  54313.173     2.799E-22
  54313.244     2.788E-22
  54313.314     2.779E-22
  54313.385     2.771E-22
  54313.457     2.760E-22
  54313.527     2.749E-22
  54313.598     2.737E-22
  54313.670     2.718E-22
  54313.740     2.688E-22
  54313.811     2.658E-22
  54313.882     2.631E-22
  54313.953     2.616E-22
  54314.024     2.607E-22
  54314.095     2.600E-22
  54314.166     2.598E-22
  54314.237     2.596E-22
  54314.308     2.590E-22
  54314.379     2.580E-22
  54314.450     2.569E-22
  54314.521     2.556E-22
  54314.592     2.545E-22
  54314.663     2.539E-22
  54314.734     2.535E-22
  54314.804     2.531E-22
  54314.876     2.525E-22
  54314.947     2.518E-22
  54315.017     2.516E-22
  54315.089     2.521E-22
  54315.159     2.529E-22
  54315.230     2.539E-22
  54315.301     2.548E-22
  54315.372     2.557E-22
  54315.443     2.567E-22
  54315.514     2.578E-22
  54315.585     2.587E-22
  54315.656     2.600E-22
  54315.727     2.618E-22
  54315.798     2.642E-22
  54315.869     2.664E-22
  54315.940     2.674E-22
  54316.011     2.675E-22
  54316.082     2.672E-22
  54316.153     2.657E-22
  54316.224     2.637E-22
  54316.295     2.626E-22
  54316.366     2.620E-22
  54316.437     2.612E-22
  54316.507     2.600E-22
  54316.579     2.592E-22
  54316.649     2.588E-22
  54316.720     2.584E-22
  54316.792     2.575E-22
  54316.863     2.560E-22
  54316.933     2.538E-22
  54317.005     2.517E-22
  54317.076     2.499E-22
  54317.146     2.482E-22
  54317.217     2.472E-22
  54317.289     2.464E-22
  54317.359     2.457E-22
  54317.430     2.452E-22
  54317.502     2.446E-22
  54317.572     2.441E-22
  54317.643     2.438E-22
  54317.715     2.438E-22
  54317.785     2.439E-22
  54317.856     2.435E-22
  54317.927     2.433E-22
  54317.998     2.439E-22
  54318.069     2.453E-22
  54318.140     2.477E-22
  54318.210     2.513E-22
  54318.281     2.556E-22
  54318.352     2.610E-22
  54318.422     2.671E-22
  54318.493     2.737E-22
  54318.564     2.796E-22
  54318.634     2.839E-22
  54318.705     2.873E-22
  54318.776     2.913E-22
  54318.846     2.961E-22
  54318.917     3.014E-22
  54318.988     3.078E-22
  54319.059     3.151E-22
  54319.129     3.230E-22
  54319.200     3.331E-22
  54319.271     3.457E-22
  54319.341     3.602E-22
  54319.412     3.760E-22
  54319.483     3.910E-22
  54319.553     4.038E-22
  54319.624     4.146E-22
  54319.695     4.245E-22
  54319.765     4.352E-22
  54319.836     4.475E-22
  54319.907     4.593E-22
  54319.977     4.673E-22
  54320.048     4.670E-22
  54320.119     4.570E-22
  54320.189     4.378E-22
  54320.260     4.140E-22
  54320.331     3.887E-22
  54320.401     3.652E-22
  54320.472     3.459E-22
  54320.543     3.308E-22
  54320.613     3.190E-22
  54320.684     3.091E-22
  54320.755     3.001E-22
  54320.826     2.921E-22
  54320.896     2.840E-22
  54320.967     2.766E-22
  54321.038     2.706E-22
  54321.108     2.645E-22
  54321.179     2.580E-22
  54321.250     2.526E-22
  54321.320     2.480E-22
  54321.391     2.444E-22
  54321.462     2.411E-22
  54321.532     2.375E-22
  54321.603     2.340E-22
  54321.674     2.312E-22
  54321.744     2.294E-22
  54321.815     2.281E-22
  54321.886     2.266E-22
  54321.956     2.255E-22
  54322.027     2.247E-22
  54322.098     2.242E-22
  54322.169     2.242E-22
  54322.239     2.243E-22
  54322.310     2.242E-22
  54322.381     2.241E-22
  54322.451     2.241E-22
  54322.522     2.242E-22
  54322.593     2.239E-22
  54322.663     2.239E-22
  54322.734     2.245E-22
  54322.805     2.261E-22
  54322.875     2.284E-22
  54322.946     2.318E-22
  54323.017     2.367E-22
  54323.087     2.431E-22
  54323.158     2.513E-22
  54323.229     2.619E-22
  54323.299     2.772E-22
  54323.370     2.999E-22
  54323.441     3.309E-22
  54323.512     3.703E-22
  54323.582     4.123E-22
  54323.653     4.457E-22
  54323.724     4.626E-22
  54323.794     4.559E-22
  54323.865     4.311E-22
  54323.936     3.952E-22
  54324.006     3.563E-22
  54324.077     3.217E-22
  54324.148     2.949E-22
  54324.218     2.773E-22
  54324.289     2.646E-22
  54324.360     2.553E-22
  54324.430     2.498E-22
  54324.501     2.470E-22
  54324.572     2.464E-22
  54324.643     2.476E-22
  54324.713     2.488E-22
  54324.784     2.496E-22
  54324.855     2.501E-22
  54324.925     2.507E-22
  54324.996     2.511E-22
  54325.067     2.517E-22
  54325.137     2.529E-22
  54325.208     2.554E-22
  54325.279     2.595E-22
  54325.349     2.647E-22
  54325.420     2.705E-22
  54325.491     2.762E-22
  54325.562     2.824E-22
  54325.632     2.910E-22
  54325.703     3.020E-22
  54325.776     3.154E-22
  54325.848     3.320E-22
  54325.921     3.540E-22
  54325.994     3.797E-22
  54326.067     4.109E-22
  54326.140     4.453E-22
  54326.213     4.877E-22
  54326.285     5.391E-22
  54326.358     5.937E-22
  54326.431     6.499E-22
  54326.504     7.013E-22
  54326.577     7.549E-22
  54326.650     7.814E-22
  54326.723     8.074E-22
  54326.793     8.338E-22
  54326.867     9.753E-22
  54326.947     1.346E-21
  54327.061     1.810E-21
  54327.139     1.890E-21
  54327.223     2.156E-21
  54327.309     2.740E-21
  54327.395     3.040E-21
  54327.481     2.763E-21
  54327.567     2.361E-21
  54327.653     1.938E-21
  54327.748     1.375E-21
  54327.835     1.128E-21
  54327.989     1.008E-21
  54328.058     8.409E-22
  54328.118     6.963E-22
  54328.185     6.683E-22
  54328.252     6.481E-22
  54328.319     6.330E-22
  54328.399     6.643E-22
  54328.533     7.623E-22
  54328.608     8.849E-22
  54328.769     9.401E-22
  54328.853     9.181E-22
  54328.942     1.163E-21
  54329.027     1.709E-21
  54329.113     2.259E-21
  54329.199     2.514E-21
  54329.285     2.350E-21
  54329.371     2.039E-21
  54329.457     1.754E-21
  54329.543     1.442E-21
  54329.629     1.148E-21
  54329.715     1.190E-21
  54329.801     1.671E-21
  54329.887     2.218E-21
  54329.973     2.505E-21
  54330.059     2.548E-21
  54330.144     2.314E-21
  54330.230     1.892E-21
  54330.316     1.379E-21
  54330.402     9.950E-22
  54330.488     1.038E-21
  54330.574     1.317E-21
  54330.663     1.323E-21
  54330.747     1.115E-21
  54330.825     8.790E-22
  54330.896     7.915E-22
  54331.089     6.147E-22
  54331.158     4.731E-22
  54331.226     4.419E-22
  54331.295     4.142E-22
  54331.364     3.919E-22
  54331.431     3.726E-22
  54331.500     3.554E-22
  54331.571     3.426E-22
  54331.641     3.298E-22
  54331.712     3.189E-22
  54331.783     3.108E-22
  54331.854     3.045E-22
  54331.924     2.982E-22
  54331.995     2.921E-22
  54332.066     2.861E-22
  54332.136     2.811E-22
  54332.207     2.779E-22
  54332.278     2.751E-22
  54332.348     2.734E-22
  54332.419     2.726E-22
  54332.490     2.724E-22
  54332.561     2.725E-22
  54332.631     2.727E-22
  54332.702     2.740E-22
  54332.773     2.738E-22
  54332.843     2.732E-22
  54332.914     2.728E-22
  54332.985     2.738E-22
  54333.055     2.754E-22
  54333.126     2.760E-22
  54333.197     2.757E-22
  54333.268     2.760E-22
  54333.338     2.766E-22
  54333.409     2.767E-22
  54333.480     2.768E-22
  54333.550     2.778E-22
  54333.621     2.779E-22
  54333.692     2.785E-22
  54333.763     2.805E-22
  54333.833     2.829E-22
  54333.904     2.852E-22
  54333.975     2.878E-22
  54334.045     2.884E-22
  54334.116     2.893E-22
  54334.187     2.904E-22
  54334.257     2.915E-22
  54334.328     2.925E-22
  54334.399     2.919E-22
  54334.470     2.901E-22
  54334.540     2.879E-22
  54334.611     2.862E-22
  54334.682     2.849E-22
  54334.752     2.840E-22
  54334.823     2.845E-22
  54334.894     2.864E-22
  54334.965     2.887E-22
  54335.035     2.910E-22
  54335.106     2.916E-22
  54335.177     2.910E-22
  54335.247     2.889E-22
  54335.318     2.865E-22
  54335.389     2.841E-22
  54335.459     2.834E-22
  54335.530     2.830E-22
  54335.601     2.841E-22
  54335.672     2.861E-22
  54335.742     2.865E-22
  54335.813     2.868E-22
  54335.884     2.869E-22
  54335.954     2.876E-22
  54336.025     2.887E-22
  54336.096     2.901E-22
  54336.167     2.929E-22
  54336.237     2.963E-22
  54336.308     2.996E-22
  54336.379     3.018E-22
  54336.449     3.024E-22
  54336.520     3.031E-22
  54336.591     3.046E-22
  54336.662     3.066E-22
  54336.732     3.073E-22
  54336.803     3.076E-22
  54336.874     3.084E-22
  54336.944     3.099E-22
  54337.015     3.119E-22
  54337.086     3.131E-22
  54337.157     3.139E-22
  54337.227     3.152E-22
  54337.298     3.180E-22
  54337.369     3.216E-22
  54337.439     3.256E-22
  54337.510     3.294E-22
  54337.581     3.321E-22
  54337.652     3.348E-22
  54337.722     3.383E-22
  54337.793     3.425E-22
  54337.864     3.462E-22
  54337.934     3.490E-22
  54338.005     3.505E-22
  54338.076     3.506E-22
  54338.147     3.503E-22
  54338.217     3.499E-22
  54338.288     3.498E-22
  54338.359     3.504E-22
  54338.429     3.516E-22
  54338.500     3.533E-22
  54338.571     3.557E-22
  54338.642     3.580E-22
  54338.712     3.605E-22
  54338.783     3.636E-22
  54338.854     3.666E-22
  54338.924     3.701E-22
  54338.995     3.741E-22
  54339.066     3.783E-22
  54339.137     3.810E-22
  54339.207     3.831E-22
  54339.278     3.859E-22
  54339.349     3.889E-22
  54339.419     3.918E-22
  54339.490     3.959E-22
  54339.561     4.000E-22
  54339.632     4.043E-22
  54339.702     4.076E-22
  54339.773     4.098E-22
  54339.844     4.126E-22
  54339.914     4.159E-22
  54339.985     4.196E-22
  54340.056     4.241E-22
  54340.127     4.308E-22
  54340.197     4.369E-22
  54340.268     4.425E-22
  54340.339     4.483E-22
  54340.409     4.533E-22
  54340.480     4.597E-22
  54340.551     4.663E-22
  54340.622     4.715E-22
  54340.692     4.753E-22
  54340.763     4.800E-22
  54340.834     4.850E-22
  54340.904     4.915E-22
  54340.975     4.994E-22
  54341.046     5.081E-22
  54341.117     5.172E-22
  54341.187     5.269E-22
  54341.258     5.365E-22
  54341.329     5.457E-22
  54341.399     5.564E-22
  54341.470     5.696E-22
  54341.541     5.842E-22
  54341.612     6.002E-22
  54341.682     6.172E-22
  54341.753     6.317E-22
  54341.824     6.414E-22
  54341.895     6.425E-22
  54341.965     6.370E-22
  54342.036     6.334E-22
  54342.107     6.347E-22
  54342.177     6.413E-22
  54342.248     6.503E-22
  54342.319     6.606E-22
  54342.390     6.726E-22
  54342.460     6.875E-22
  54342.531     7.063E-22
  54342.600     7.313E-22
  54342.668     7.603E-22
  54342.737     7.926E-22
  54342.806     8.277E-22
  54342.875     8.635E-22
  54342.943     8.983E-22
  54343.012     9.343E-22
  54343.081     9.736E-22
  54343.150     1.012E-21
  54343.219     1.050E-21
  54343.288     1.081E-21
  54343.357     1.103E-21
  54343.425     1.112E-21
  54343.565     1.133E-21
  54343.636     1.148E-21
  54343.707     1.151E-21
  54343.777     1.163E-21
  54343.848     1.167E-21
  54343.919     1.169E-21
  54343.990     1.184E-21
  54344.061     1.193E-21
  54344.131     1.223E-21
  54344.202     1.239E-21
  54344.273     1.252E-21
  54344.344     1.257E-21
  54344.415     1.270E-21
  54344.876     1.473E-21
  54345.739     1.921E-21
  54346.601     2.944E-21
  54346.641     3.388E-21
  54346.726     4.094E-21
  54346.812     4.180E-21
  54346.898     4.025E-21
  54346.984     3.774E-21
  54347.070     3.770E-21
  54347.156     4.173E-21
  54347.242     4.828E-21
  54347.328     5.607E-21
  54347.414     6.367E-21
  54347.500     7.106E-21
  54347.586     7.848E-21
  54347.671     8.419E-21
  54347.757     8.976E-21
  54347.843     1.003E-20
  54347.929     1.211E-20
  54348.020     1.522E-20
  54348.106     1.853E-20
  54348.191     2.186E-20
  54348.276     2.598E-20
  54348.362     3.122E-20
  54348.448     3.747E-20
  54348.541     4.405E-20
  54348.620     4.967E-20
  54348.705     5.423E-20
  54348.793     5.746E-20
  54348.888     5.902E-20
  54348.974     6.004E-20
  54349.060     6.086E-20
  54349.146     6.056E-20
  54349.223     5.962E-20
  54349.318     5.826E-20
  54349.394     5.526E-20
  54349.479     5.133E-20
  54349.565     4.898E-20
  54349.652     4.891E-20
  54349.744     4.869E-20
  54349.822     4.693E-20
  54349.908     4.441E-20
  54349.994     4.198E-20
  54350.080     3.947E-20
  54350.166     3.616E-20
  54350.252     3.238E-20
  54350.338     2.891E-20
  54350.425     2.568E-20
  54350.511     2.263E-20
  54350.597     2.022E-20
  54350.683     1.839E-20
  54350.769     1.694E-20
  54350.850     1.576E-20
  54350.936     1.465E-20
  54351.022     1.321E-20
  54351.108     1.152E-20
  54351.194     1.017E-20
  54351.280     9.464E-21
  54351.366     9.377E-21
  54351.451     9.690E-21
  54351.537     9.852E-21
  54351.623     9.633E-21
  54351.709     9.182E-21
  54351.795     8.605E-21
  54351.881     8.014E-21
  54351.967     7.591E-21
  54352.053     7.346E-21
  54352.139     7.123E-21
  54352.225     6.886E-21
  54352.311     6.695E-21
  54352.396     6.335E-21
  54352.482     5.627E-21
  54352.568     4.852E-21
  54352.654     4.353E-21
  54352.740     4.138E-21
  54352.826     3.711E-21
  54352.912     3.066E-21
  54352.998     2.801E-21
  54353.084     2.942E-21
  54353.170     3.208E-21
  54353.256     3.381E-21
  54353.341     3.338E-21
  54353.427     2.988E-21
  54353.513     2.680E-21
  54353.599     2.596E-21
  54353.685     2.543E-21
  54353.771     2.592E-21
  54353.857     2.731E-21
  54353.943     2.728E-21
  54354.029     2.575E-21
  54354.115     2.257E-21
  54354.200     1.873E-21
  54354.286     1.681E-21
  54354.372     1.814E-21
  54354.458     1.997E-21
  54354.544     1.961E-21
  54354.630     2.049E-21
  54354.716     2.452E-21
  54354.802     2.635E-21
  54354.888     2.374E-21
  54354.974     2.193E-21
  54355.060     2.397E-21
  54355.145     2.700E-21
  54355.231     2.918E-21
  54355.317     3.079E-21
  54355.403     3.091E-21
  54355.489     3.239E-21
  54355.575     3.551E-21
  54355.661     3.977E-21
  54355.747     4.057E-21
  54355.833     3.420E-21
  54355.919     2.766E-21
  54356.004     2.735E-21
  54356.090     3.024E-21
  54356.176     3.203E-21
  54356.262     3.264E-21
  54356.348     3.459E-21
  54356.434     3.854E-21
  54356.520     4.210E-21
  54356.606     4.317E-21
  54356.692     4.276E-21
  54356.778     4.341E-21
  54356.864     4.611E-21
  54356.949     5.027E-21
  54357.035     5.405E-21
  54357.121     5.648E-21
  54357.207     5.912E-21
  54357.293     6.362E-21
  54357.379     6.941E-21
  54357.465     7.472E-21
  54357.551     7.876E-21
  54357.637     8.153E-21
  54357.723     8.633E-21
  54357.808     9.304E-21
  54357.894     1.003E-20
  54357.980     1.082E-20
  54358.066     1.190E-20
  54358.152     1.345E-20
  54358.238     1.544E-20
  54358.328     1.758E-20
  54358.414     2.007E-20
  54358.500     2.325E-20
  54358.586     2.723E-20
  54358.671     3.313E-20
  54358.757     4.165E-20
  54358.850     5.172E-20
  54358.936     6.269E-20
  54359.025     7.401E-20
  54359.111     8.342E-20
  54359.197     9.019E-20
  54359.283     9.464E-20
  54359.371     9.644E-20
  54359.457     9.587E-20
  54359.543     9.536E-20
  54359.626     9.520E-20
  54359.712     9.375E-20
  54359.798     9.096E-20
  54359.884     8.726E-20
  54359.970     8.346E-20
  54360.056     7.951E-20
  54360.142     7.492E-20
  54360.228     6.970E-20
  54360.304     6.425E-20
  54360.400     5.854E-20
  54360.475     5.283E-20
  54360.568     4.745E-20
  54360.646     4.220E-20
  54360.732     3.782E-20
  54360.818     3.402E-20
  54360.906     2.984E-20
  54360.991     2.559E-20
  54361.077     2.207E-20
  54361.163     1.962E-20
  54361.249     1.780E-20
  54361.330     1.613E-20
  54361.421     1.456E-20
  54361.502     1.317E-20
  54361.588     1.180E-20
  54361.674     1.066E-20
  54361.760     9.910E-21
  54361.846     9.066E-21
  54361.932     7.821E-21
  54362.018     6.592E-21
  54362.104     5.957E-21
  54362.189     5.725E-21
  54362.275     5.411E-21
  54362.361     5.098E-21
  54362.447     5.184E-21
  54362.533     5.387E-21
  54362.619     5.044E-21
  54362.705     4.600E-21
  54362.791     4.634E-21
  54362.877     4.906E-21
  54362.963     4.761E-21
  54363.048     3.974E-21
  54363.074     3.353E-21
  54363.885     2.678E-21
  54364.748     1.901E-21
  54364.812     1.587E-21
  54364.883     1.578E-21
  54364.954     1.540E-21
  54365.025     1.480E-21
  54365.096     1.444E-21
  54365.166     1.441E-21
  54365.237     1.428E-21
  54365.308     1.431E-21
  54365.379     1.443E-21
  54365.450     1.451E-21
  54365.521     1.468E-21
  54365.592     1.448E-21
  54365.662     1.437E-21
  54365.733     1.410E-21
  54365.804     1.371E-21
  54365.875     1.342E-21
  54365.946     1.316E-21
  54366.017     1.288E-21
  54366.088     1.256E-21
  54366.158     1.226E-21
  54366.230     1.188E-21
  54366.301     1.155E-21
  54366.371     1.129E-21
  54366.442     1.112E-21
  54366.513     1.093E-21
  54366.584     1.069E-21
  54366.654     1.045E-21
  54366.725     1.035E-21
  54366.796     1.042E-21
  54366.867     1.064E-21
  54366.938     1.099E-21
  54367.008     1.145E-21
  54367.079     1.194E-21
  54367.150     1.230E-21
  54367.221     1.243E-21
  54367.291     1.227E-21
  54367.362     1.176E-21
  54367.433     1.105E-21
  54367.504     1.037E-21
  54367.574     9.804E-22
  54367.645     9.406E-22
  54367.716     9.137E-22
  54367.787     8.934E-22
  54367.857     8.764E-22
  54367.928     8.627E-22
  54367.999     8.521E-22
  54368.070     8.402E-22
  54368.141     8.203E-22
  54368.211     7.980E-22
  54368.282     7.776E-22
  54368.353     7.595E-22
  54368.424     7.455E-22
  54368.494     7.384E-22
  54368.565     7.364E-22
  54368.636     7.394E-22
  54368.707     7.497E-22
  54368.777     7.645E-22
  54368.848     7.827E-22
  54368.919     8.060E-22
  54368.990     8.360E-22
  54369.061     8.731E-22
  54369.131     9.139E-22
  54369.202     9.461E-22
  54369.273     9.591E-22
  54369.344     9.426E-22
  54369.414     9.003E-22
  54369.485     8.509E-22
  54369.556     7.989E-22
  54369.627     7.493E-22
  54369.697     7.046E-22
  54369.768     6.642E-22
  54369.839     6.285E-22
  54369.910     5.987E-22
  54369.981     5.750E-22
  54370.051     5.560E-22
  54370.122     5.417E-22
  54370.193     5.314E-22
  54370.264     5.240E-22
  54370.334     5.189E-22
  54370.405     5.152E-22
  54370.476     5.136E-22
  54370.547     5.142E-22
  54370.618     5.150E-22
  54370.688     5.143E-22
  54370.759     5.125E-22
  54370.830     5.092E-22
  54370.901     5.062E-22
  54370.971     5.033E-22
  54371.042     5.012E-22
  54371.113     5.021E-22
  54371.184     5.051E-22
  54371.254     5.094E-22
  54371.325     5.162E-22
  54371.396     5.262E-22
  54371.467     5.404E-22
  54371.538     5.590E-22
  54371.608     5.792E-22
  54371.679     5.992E-22
  54371.750     6.171E-22
  54371.821     6.295E-22
  54371.891     6.362E-22
  54371.962     6.408E-22
  54372.033     6.472E-22
  54372.104     6.561E-22
  54372.175     6.688E-22
  54372.245     6.858E-22
  54372.316     7.035E-22
  54372.387     7.226E-22
  54372.458     7.410E-22
  54372.528     7.551E-22
  54372.599     7.597E-22
  54372.670     7.563E-22
  54372.741     7.477E-22
  54372.812     7.357E-22
  54372.882     7.202E-22
  54372.953     7.014E-22
  54373.024     6.799E-22
  54373.095     6.585E-22
  54373.165     6.388E-22
  54373.236     6.179E-22
  54373.307     5.980E-22
  54373.378     5.807E-22
  54373.448     5.648E-22
  54373.519     5.501E-22
  54373.590     5.347E-22
  54373.661     5.204E-22
  54373.732     5.083E-22
  54373.802     4.984E-22
  54373.873     4.901E-22
  54373.944     4.837E-22
  54374.015     4.798E-22
  54374.085     4.769E-22
  54374.156     4.741E-22
  54374.227     4.706E-22
  54374.298     4.676E-22
  54374.369     4.670E-22
  54374.439     4.669E-22
  54374.510     4.666E-22
  54374.581     4.677E-22
  54374.652     4.702E-22
  54374.723     4.733E-22
  54374.793     4.764E-22
  54374.864     4.797E-22
  54374.935     4.833E-22
  54375.006     4.884E-22
  54375.076     4.939E-22
  54375.147     4.997E-22
  54375.219     5.122E-22
  54375.291     5.281E-22
  54375.363     5.493E-22
  54375.434     5.730E-22
  54375.946     1.632E-21
  54376.019     1.822E-21
  54376.105     2.281E-21
  54376.190     2.554E-21
  54376.276     3.063E-21
  54376.362     3.784E-21
  54376.448     4.216E-21
  54376.534     4.241E-21
  54376.620     4.168E-21
  54376.706     4.108E-21
  54376.792     3.898E-21
  54376.878     3.238E-21
  54376.963     2.447E-21
  54377.049     2.031E-21
  54377.135     2.155E-21
  54377.221     2.769E-21
  54377.307     3.681E-21
  54377.393     4.381E-21
  54377.479     4.675E-21
  54377.565     4.951E-21
  54377.651     5.348E-21
  54377.737     5.497E-21
  54377.822     5.288E-21
  54377.908     4.769E-21
  54377.994     3.922E-21
  54378.080     2.895E-21
  54378.166     2.402E-21
  54378.252     2.714E-21
  54378.338     3.101E-21
  54378.424     3.138E-21
  54378.510     3.021E-21
  54378.595     2.739E-21
  54378.681     2.373E-21
  54378.767     2.129E-21
  54378.853     2.138E-21
  54378.939     2.311E-21
  54379.025     2.502E-21
  54379.111     2.799E-21
  54379.197     3.445E-21
  54379.283     4.137E-21
  54379.368     4.436E-21
  54379.454     4.399E-21
  54379.540     4.326E-21
  54379.626     4.068E-21
  54379.712     3.596E-21
  54379.798     3.273E-21
  54379.884     3.285E-21
  54379.970     3.480E-21
  54380.056     3.511E-21
  54380.141     3.122E-21
  54380.227     2.733E-21
  54380.313     2.718E-21
  54380.399     2.715E-21
  54380.485     2.349E-21
  54380.571     1.867E-21
  54380.657     1.525E-21
  54380.743     1.301E-21
  54380.914     1.144E-21
  54381.048     1.047E-21
  54381.080     9.005E-22
  54381.111     7.831E-22
  54381.180     7.157E-22
  54381.248     6.652E-22
  54381.317     6.225E-22
  54381.386     5.887E-22
  54381.455     5.592E-22
  54381.524     5.379E-22
  54381.593     5.207E-22
  54381.662     5.045E-22
  54381.730     4.885E-22
  54381.801     4.758E-22
  54381.872     4.637E-22
  54381.943     4.519E-22
  54382.084     4.299E-22
  54382.155     4.207E-22
  54382.225     4.128E-22
  54382.296     4.057E-22
  54382.366     3.981E-22
  54382.436     3.906E-22
  54382.507     3.846E-22
  54382.577     3.805E-22
  54382.648     3.778E-22
  54382.718     3.762E-22
  54382.788     3.754E-22
  54382.859     3.749E-22
  54382.930     3.744E-22
  54383.000     3.737E-22
  54383.070     3.732E-22
  54383.141     3.731E-22
  54383.211     3.722E-22
  54383.282     3.715E-22
  54383.352     3.712E-22
  54383.422     3.710E-22
  54383.493     3.713E-22
  54383.564     3.719E-22
  54383.634     3.730E-22
  54383.705     3.738E-22
  54383.775     3.750E-22
  54383.845     3.767E-22
  54383.916     3.788E-22
  54383.987     3.815E-22
  54384.057     3.841E-22
  54384.127     3.862E-22
  54384.198     3.884E-22
  54384.268     3.910E-22
  54384.339     3.936E-22
  54384.410     3.961E-22
  54384.480     3.992E-22
  54384.550     4.027E-22
  54384.621     4.063E-22
  54384.692     4.092E-22
  54384.762     4.117E-22
  54384.832     4.140E-22
  54384.903     4.163E-22
  54384.973     4.176E-22
  54385.044     4.182E-22
  54385.115     4.188E-22
  54385.185     4.195E-22
  54385.256     4.216E-22
  54385.326     4.252E-22
  54385.397     4.284E-22
  54385.468     4.309E-22
  54385.538     4.329E-22
  54385.609     4.347E-22
  54385.679     4.381E-22
  54385.749     4.443E-22
  54385.820     4.531E-22
  54385.890     4.650E-22
  54385.961     4.806E-22
  54386.032     5.001E-22
  54386.102     5.228E-22
  54386.173     5.495E-22
  54386.243     5.766E-22
  54386.314     6.013E-22
  54386.385     6.227E-22
  54386.456     6.406E-22
  54386.526     6.541E-22
  54386.597     6.615E-22
  54386.667     6.633E-22
  54386.737     6.603E-22
  54386.808     6.537E-22
  54386.879     6.464E-22
  54386.949     6.381E-22
  54387.020     6.277E-22
  54387.091     6.156E-22
  54387.161     6.025E-22
  54387.232     5.890E-22
  54387.303     5.770E-22
  54387.373     5.646E-22
  54387.444     5.517E-22
  54387.515     5.382E-22
  54387.585     5.258E-22
  54387.655     5.138E-22
  54387.726     5.014E-22
  54387.797     4.922E-22
  54387.868     4.860E-22
  54387.938     4.820E-22
  54388.009     4.789E-22
  54388.080     4.759E-22
  54388.151     4.724E-22
  54388.222     4.682E-22
  54388.293     4.638E-22
  54388.364     4.601E-22
  54388.435     4.550E-22
  54388.506     4.488E-22
  54388.576     4.435E-22
  54388.647     4.383E-22
  54388.718     4.330E-22
  54388.789     4.283E-22
  54388.860     4.245E-22
  54388.931     4.222E-22
  54389.002     4.213E-22
  54389.073     4.205E-22
  54389.144     4.190E-22
  54389.215     4.177E-22
  54389.286     4.167E-22
  54389.357     4.161E-22
  54389.428     4.155E-22
  54389.499     4.149E-22
  54389.570     4.144E-22
  54389.640     4.138E-22
  54389.711     4.138E-22
  54389.782     4.142E-22
  54389.853     4.153E-22
  54389.924     4.172E-22
  54389.995     4.200E-22
  54390.066     4.228E-22
  54390.137     4.245E-22
  54390.208     4.257E-22
  54390.279     4.267E-22
  54390.350     4.281E-22
  54390.421     4.309E-22
  54390.492     4.345E-22
  54390.563     4.384E-22
  54390.634     4.425E-22
  54390.704     4.460E-22
  54390.775     4.483E-22
  54390.846     4.498E-22
  54390.917     4.510E-22
  54390.988     4.525E-22
  54391.059     4.545E-22
  54391.130     4.572E-22
  54391.201     4.605E-22
  54391.272     4.647E-22
  54391.343     4.702E-22
  54391.414     4.765E-22
  54391.485     4.832E-22
  54391.556     4.904E-22
  54391.627     4.979E-22
  54391.698     5.060E-22
  54391.769     5.162E-22
  54391.839     5.271E-22
  54391.910     5.398E-22
  54391.981     5.544E-22
  54392.052     5.713E-22
  54392.123     5.932E-22
  54392.194     6.190E-22
  54392.265     6.470E-22
  54392.336     6.756E-22
  54392.407     7.066E-22
  54392.478     7.417E-22
  54392.549     7.802E-22
  54392.620     8.203E-22
  54392.691     8.573E-22
  54392.762     8.888E-22
  54392.833     9.131E-22
  54392.904     9.303E-22
  54392.974     9.434E-22
  54393.045     9.514E-22
  54393.116     9.512E-22
  54393.187     9.438E-22
  54393.258     9.304E-22
  54393.329     9.113E-22
  54393.400     8.899E-22
  54393.471     8.684E-22
  54393.542     8.480E-22
  54393.613     8.297E-22
  54393.684     8.123E-22
  54393.755     7.943E-22
  54393.826     7.772E-22
  54393.897     7.610E-22
  54393.968     7.441E-22
  54394.039     7.279E-22
  54394.110     7.132E-22
  54394.181     6.994E-22
  54394.251     6.876E-22
  54394.322     6.780E-22
  54394.393     6.716E-22
  54394.464     6.682E-22
  54394.535     6.654E-22
  54394.606     6.652E-22
  54394.677     6.694E-22
  54394.748     6.762E-22
  54394.819     6.841E-22
  54394.890     6.934E-22
  54394.961     7.025E-22
  54395.032     7.089E-22
  54395.103     7.133E-22
  54395.174     7.166E-22
  54395.245     7.198E-22
  54395.316     7.234E-22
  54395.387     7.275E-22
  54395.458     7.343E-22
  54395.529     7.419E-22
  54395.600     7.498E-22
  54396.684     1.577E-21
  54396.717     2.566E-21
  54396.803     2.782E-21
  54396.888     2.920E-21
  54396.974     3.259E-21
  54397.060     3.685E-21
  54397.146     3.710E-21
  54397.232     3.141E-21
  54397.318     2.596E-21
  54397.404     2.247E-21
  54397.490     1.878E-21
  54397.575     1.766E-21
  54397.661     2.174E-21
  54397.747     2.562E-21
  54397.833     2.237E-21
  54397.919     1.657E-21
  54398.005     1.645E-21
  54398.091     2.163E-21
  54398.177     2.686E-21
  54398.262     3.040E-21
  54398.348     3.185E-21
  54398.434     3.109E-21
  54398.520     3.277E-21
  54398.606     4.073E-21
  54398.692     5.114E-21
  54398.778     5.804E-21
  54398.864     6.073E-21
  54398.949     6.074E-21
  54399.035     5.762E-21
  54399.121     5.334E-21
  54399.207     4.915E-21
  54399.293     4.466E-21
  54399.379     4.141E-21
  54399.465     3.975E-21
  54399.551     3.803E-21
  54399.636     3.680E-21
  54399.722     3.673E-21
  54399.808     3.472E-21
  54399.894     3.038E-21
  54399.980     3.318E-21
  54400.066     4.894E-21
  54400.152     6.823E-21
  54400.238     7.976E-21
  54400.323     8.642E-21
  54400.409     9.298E-21
  54400.495     9.891E-21
  54400.581     1.025E-20
  54400.667     1.016E-20
  54400.753     9.587E-21
  54400.839     8.897E-21
  54400.925     8.416E-21
  54401.010     8.063E-21
  54401.096     7.708E-21
  54401.182     7.582E-21
  54401.268     7.873E-21
  54401.354     8.482E-21
  54401.440     9.078E-21
  54401.526     9.593E-21
  54401.616     9.796E-21
  54401.697     9.594E-21
  54401.783     9.351E-21
  54401.869     9.167E-21
  54401.955     9.302E-21
  54402.041     9.752E-21
  54402.127     1.013E-20
  54402.213     1.006E-20
  54402.299     9.864E-21
  54402.384     9.908E-21
  54402.470     9.784E-21
  54402.556     9.608E-21
  54402.642     9.874E-21
  54402.728     1.049E-20
  54402.814     1.118E-20
  54402.900     1.177E-20
  54402.985     1.224E-20
  54403.071     1.298E-20
  54403.157     1.438E-20
  54403.243     1.597E-20
  54403.333     1.738E-20
  54403.419     1.921E-20
  54403.505     2.191E-20
  54403.591     2.554E-20
  54403.675     3.001E-20
  54403.761     3.546E-20
  54403.847     4.254E-20
  54403.940     5.177E-20
  54404.026     6.268E-20
  54404.116     7.369E-20
  54404.202     8.255E-20
  54404.287     8.812E-20
  54404.373     9.061E-20
  54404.459     9.149E-20
  54404.545     9.145E-20
  54404.631     9.006E-20
  54404.717     8.777E-20
  54404.803     8.565E-20
  54404.888     8.412E-20
  54404.974     8.235E-20
  54405.060     7.957E-20
  54405.146     7.661E-20
  54405.232     7.396E-20
  54405.308     7.112E-20
  54405.404     6.701E-20
  54405.480     6.212E-20
  54405.575     5.738E-20
  54405.652     5.282E-20
  54405.736     4.876E-20
  54405.822     4.506E-20
  54405.908     4.112E-20
  54405.994     3.703E-20
  54406.080     3.339E-20
  54406.166     2.992E-20
  54406.252     2.605E-20
  54406.339     2.236E-20
  54406.425     1.955E-20
  54406.511     1.769E-20
  54406.592     1.659E-20
  54406.682     1.593E-20
  54406.768     1.516E-20
  54406.850     1.398E-20
  54406.940     1.262E-20
  54407.021     1.140E-20
  54407.107     1.051E-20
  54407.193     9.871E-21
  54407.279     9.187E-21
  54407.365     8.261E-21
  54407.451     7.404E-21
  54407.537     7.097E-21
  54407.622     7.254E-21
  54407.708     7.289E-21
  54407.794     6.980E-21
  54407.880     6.526E-21
  54407.966     5.866E-21
  54408.052     5.223E-21
  54408.138     4.939E-21
  54408.224     4.931E-21
  54408.309     4.798E-21
  54408.395     4.756E-21
  54408.481     5.099E-21
  54408.567     5.403E-21
  54408.653     5.260E-21
  54408.739     4.966E-21
  54408.825     4.756E-21
  54408.911     4.420E-21
  54408.996     3.846E-21
  54409.082     3.298E-21
  54409.168     3.327E-21
  54409.254     3.897E-21
  54409.340     4.427E-21
  54409.426     4.520E-21
  54409.512     4.227E-21
  54409.597     3.856E-21
  54409.683     3.668E-21
  54409.769     3.987E-21
  54409.855     4.563E-21
  54409.941     4.889E-21
  54410.027     4.844E-21
  54410.113     4.551E-21
  54410.199     4.147E-21
  54410.284     3.796E-21
  54410.370     3.615E-21
  54410.456     3.660E-21
  54410.542     3.995E-21
  54410.628     4.474E-21
  54410.714     4.869E-21
  54410.800     5.134E-21
  54410.885     5.512E-21
  54410.971     6.169E-21
  54411.057     6.847E-21
  54411.143     6.909E-21
  54411.229     6.450E-21
  54411.315     6.269E-21
  54411.401     6.431E-21
  54411.487     6.801E-21
  54411.572     7.525E-21
  54411.658     8.470E-21
  54411.744     9.244E-21
  54411.830     9.839E-21
  54411.916     1.060E-20
  54412.002     1.154E-20
  54412.092     1.213E-20
  54412.173     1.244E-20
  54412.264     1.311E-20
  54412.345     1.431E-20
  54412.435     1.583E-20
  54412.521     1.733E-20
  54412.607     1.899E-20
  54412.693     2.166E-20
  54412.779     2.576E-20
  54412.863     3.060E-20
  54412.949     3.546E-20
  54413.035     4.065E-20
  54413.121     4.742E-20
  54413.214     5.725E-20
  54413.304     7.055E-20
  54413.389     8.624E-20
  54413.475     1.034E-19
  54413.564     1.223E-19
  54413.649     1.378E-19
  54413.735     1.454E-19
  54413.821     1.482E-19
  54413.907     1.504E-19
  54413.993     1.526E-19
  54414.079     1.524E-19
  54414.165     1.483E-19
  54414.250     1.406E-19
  54414.336     1.313E-19
  54414.422     1.224E-19
  54414.508     1.148E-19
  54414.594     1.058E-19
  54414.677     9.553E-20
  54414.763     8.620E-20
  54414.849     7.836E-20
  54414.926     7.117E-20
  54415.017     6.372E-20
  54415.103     5.534E-20
  54415.182     4.683E-20
  54415.268     3.977E-20
  54415.353     3.438E-20
  54415.439     3.012E-20
  54415.527     2.698E-20
  54415.612     2.471E-20
  54415.698     2.253E-20
  54415.784     2.029E-20
  54415.870     1.843E-20
  54415.956     1.689E-20
  54416.037     1.521E-20
  54416.123     1.357E-20
  54416.213     1.222E-20
  54416.295     1.078E-20
  54416.381     9.331E-21
  54416.467     8.272E-21
  54416.553     7.646E-21
  54416.638     7.184E-21
  54416.724     6.833E-21
  54416.810     6.716E-21
  54416.896     6.479E-21
  54416.982     5.883E-21
  54417.068     5.293E-21
  54417.154     5.089E-21
  54417.239     5.179E-21
  54417.325     5.282E-21
  54417.411     5.052E-21
  54417.497     4.575E-21
  54417.583     4.162E-21
  54417.669     3.929E-21
  54417.755     3.925E-21
  54417.840     3.897E-21
  54417.926     3.585E-21
  54418.012     3.438E-21
  54418.098     3.468E-21
  54418.184     3.125E-21
  54418.270     2.782E-21
  54418.356     2.820E-21
  54418.441     3.029E-21
  54418.527     3.026E-21
  54418.613     2.769E-21
  54418.699     2.510E-21
  54418.785     2.306E-21
  54418.871     2.085E-21
  54418.957     2.068E-21
  54419.042     2.079E-21
  54419.128     1.765E-21
  54419.300     1.510E-21
  54419.386     1.599E-21
  54419.472     1.682E-21
  54419.558     1.465E-21
  54419.644     1.195E-21
  54419.729     1.081E-21
  54419.815     1.076E-21
  54419.901     1.062E-21
  54419.987     1.043E-21
  54420.073     1.180E-21
  54420.159     1.566E-21
  54420.245     1.983E-21
  54420.330     2.236E-21
  54420.416     2.401E-21
  54420.502     2.622E-21
  54420.588     2.731E-21
  54420.674     2.757E-21
  54420.760     3.197E-21
  54420.846     4.098E-21
  54420.931     4.697E-21
  54421.017     4.652E-21
  54421.103     4.444E-21
  54421.189     4.290E-21
  54421.275     4.160E-21
  54421.361     3.774E-21
  54421.447     3.103E-21
  54421.532     2.606E-21
  54421.618     2.426E-21
  54421.704     2.178E-21
  54421.876     1.865E-21
  54422.048     1.688E-21
  54422.133     1.655E-21
  54422.219     1.707E-21
  54422.305     1.906E-21
  54422.391     2.217E-21
  54422.477     2.746E-21
  54422.563     3.453E-21
  54422.649     4.132E-21
  54422.734     4.442E-21
  54422.820     4.305E-21
  54422.906     4.285E-21
  54422.992     4.487E-21
  54423.078     4.431E-21
  54423.164     4.164E-21
  54423.250     4.027E-21
  54423.335     3.952E-21
  54423.421     3.483E-21
  54423.498     2.957E-21
  54424.390     1.739E-21
  54425.229     1.253E-21
  54426.095     9.785E-22
  54426.767     8.632E-22
  54426.838     8.352E-22
  54426.909     8.014E-22
  54426.981     7.647E-22
  54427.052     7.303E-22
  54427.123     7.003E-22
  54427.194     6.770E-22
  54427.265     6.601E-22
  54427.336     6.479E-22
  54427.407     6.377E-22
  54427.478     6.295E-22
  54427.549     6.230E-22
  54427.620     6.195E-22
  54427.691     6.181E-22
  54427.762     6.183E-22
  54427.833     6.188E-22
  54427.904     6.186E-22
  54427.975     6.181E-22
  54428.046     6.181E-22
  54428.117     6.177E-22
  54428.188     6.214E-22
  54428.259     6.295E-22
  54428.330     6.416E-22
  54428.401     6.570E-22
  54428.473     6.794E-22
  54428.544     7.056E-22
  54428.615     7.388E-22
  54428.686     7.770E-22
  54428.757     8.176E-22
  54428.828     8.684E-22
  54428.899     9.308E-22
  54428.970     9.935E-22
  54429.041     1.058E-21
  54429.112     1.120E-21
  54429.183     1.176E-21
  54429.254     1.204E-21
  54429.325     1.214E-21
  54429.396     1.199E-21
  54429.467     1.169E-21
  54429.538     1.122E-21
  54429.609     1.064E-21
  54429.680     1.009E-21
  54429.751     9.597E-22
  54429.823     9.121E-22
  54429.894     8.655E-22
  54429.965     8.264E-22
  54430.036     7.891E-22
  54430.107     7.562E-22
  54430.178     7.279E-22
  54430.249     6.987E-22
  54430.320     6.752E-22
  54430.391     6.586E-22
  54430.462     6.424E-22
  54430.534     6.281E-22
  54430.605     6.150E-22
  54430.676     6.039E-22
  54430.747     5.966E-22
  54430.818     5.921E-22
  54430.889     5.892E-22
  54430.960     5.872E-22
  54431.031     5.900E-22
  54431.102     5.996E-22
  54431.173     6.046E-22
  54431.244     6.156E-22
  54431.315     6.273E-22
  54431.386     6.433E-22
  54431.457     6.530E-22
  54431.528     6.593E-22
  54431.599     6.629E-22
  54431.670     6.626E-22
  54431.742     6.554E-22
  54431.813     6.489E-22
  54431.884     6.336E-22
  54431.955     6.139E-22
  54432.026     5.932E-22
  54432.097     5.731E-22
  54432.168     5.630E-22
  54432.239     5.496E-22
  54432.310     5.433E-22
  54432.381     5.386E-22
  54432.452     5.339E-22
  54432.523     5.297E-22
  54432.594     5.252E-22
  54432.665     5.257E-22
  54432.736     5.278E-22
  54432.807     5.292E-22
  54432.879     5.259E-22
  54432.950     5.295E-22
  54433.021     5.313E-22
  54433.092     5.281E-22
  54433.163     5.243E-22
  54433.234     5.219E-22
  54433.305     5.160E-22
  54433.376     5.144E-22
  54433.447     5.112E-22
  54433.518     5.064E-22
  54433.589     5.051E-22
  54433.660     5.049E-22
  54433.731     5.007E-22
  54433.802     5.024E-22
  54433.873     5.010E-22
  54433.945     4.980E-22
  54434.016     4.978E-22
  54434.087     5.022E-22
  54434.158     5.056E-22
  54434.229     5.114E-22
  54434.300     5.133E-22
  54434.371     5.114E-22
  54434.442     5.104E-22
  54434.513     5.118E-22
  54434.584     5.191E-22
  54434.655     5.239E-22
  54434.726     5.336E-22
  54434.797     5.442E-22
  54434.868     5.505E-22
  54434.940     5.549E-22
  54435.011     5.616E-22
  54435.082     5.659E-22
  54435.153     5.687E-22
  54435.224     5.720E-22
  54435.295     5.799E-22
  54435.366     5.914E-22
  54435.437     6.028E-22
  54435.508     6.069E-22
  54435.579     6.133E-22
  54435.650     6.276E-22
  54435.721     6.396E-22
  54435.792     6.490E-22
  54435.863     6.592E-22
  54435.935     6.688E-22
  54436.006     6.809E-22
  54436.219     7.178E-22
  54436.290     7.414E-22
  54436.361     8.216E-22
  54436.432     9.011E-22
  54436.814     1.625E-21
  54436.900     2.849E-21
  54436.986     3.925E-21
  54437.072     4.414E-21
  54437.158     4.174E-21
  54437.244     3.462E-21
  54437.329     2.703E-21
  54437.415     2.201E-21
  54437.587     2.010E-21
  54437.673     1.784E-21
  54437.759     1.352E-21
  54437.845     8.960E-22
  54437.930     6.712E-22
  54438.016     8.370E-22
  54438.102     1.285E-21
  54438.188     1.737E-21
  54438.274     2.303E-21
  54438.360     3.295E-21
  54438.445     4.263E-21
  54438.531     4.801E-21
  54438.617     5.186E-21
  54438.703     5.464E-21
  54438.789     5.445E-21
  54438.875     5.077E-21
  54438.961     4.498E-21
  54439.046     3.836E-21
  54439.132     3.137E-21
  54439.218     2.518E-21
  54439.304     1.892E-21
  54439.390     1.379E-21
  54439.476     1.231E-21
  54439.561     1.545E-21
  54439.647     2.086E-21
  54439.733     2.337E-21
  54439.819     2.306E-21
  54439.905     2.251E-21
  54439.991     2.100E-21
  54440.077     1.739E-21
  54440.155     1.422E-21
  54440.257     1.327E-21
  54440.339     1.240E-21
  54440.414     1.164E-21
  54440.839     9.542E-22
  54440.910     9.297E-22
  54440.981     9.051E-22
  54441.052     8.776E-22
  54441.124     8.556E-22
  54441.195     8.428E-22
  54441.266     8.268E-22
  54441.337     8.023E-22
  54441.408     7.880E-22
  54441.479     7.733E-22
  54441.550     7.620E-22
  54441.621     7.559E-22
  54441.692     7.507E-22
  54441.763     7.464E-22
  54441.834     7.356E-22
  54441.906     7.322E-22
  54441.977     7.362E-22
  54442.048     7.385E-22
  54442.119     7.374E-22
  54442.190     7.367E-22
  54442.261     7.405E-22
  54442.332     7.426E-22
  54442.403     7.404E-22
  54442.474     7.488E-22
  54442.545     7.638E-22
  54442.616     7.715E-22
  54442.688     7.817E-22
  54442.759     7.994E-22
  54442.830     8.115E-22
  54442.901     8.348E-22
  54442.972     8.693E-22
  54443.043     9.225E-22
  54443.114     9.950E-22
  54443.185     1.090E-21
  54443.256     1.198E-21
  54443.327     1.304E-21
  54443.398     1.389E-21
  54443.470     1.443E-21
  54443.541     1.432E-21
  54443.612     1.390E-21
  54443.683     1.319E-21
  54443.754     1.244E-21
  54443.825     1.178E-21
  54443.896     1.108E-21
  54443.967     1.060E-21
  54444.038     1.028E-21
  54444.109     1.020E-21
  54444.181     1.019E-21
  54444.252     1.025E-21
  54444.323     1.036E-21
  54444.394     1.049E-21
  54444.465     1.071E-21
  54444.536     1.097E-21
  54444.607     1.154E-21
  54444.678     1.227E-21
  54444.749     1.310E-21
  54444.820     1.396E-21
  54444.892     1.508E-21
  54444.963     1.644E-21
  54445.034     1.766E-21
  54445.105     1.881E-21
  54445.176     1.929E-21
  54445.247     1.982E-21
  54445.318     2.026E-21
  54445.389     1.977E-21
  54445.460     1.900E-21
  54445.531     1.825E-21
  54445.603     1.768E-21
  54445.674     1.726E-21
  54445.745     1.647E-21
  54445.816     1.578E-21
  54445.887     1.506E-21
  54445.958     1.452E-21
  54446.029     1.411E-21
  54446.100     1.420E-21
  54446.171     1.412E-21
  54446.243     1.419E-21
  54446.314     1.419E-21
  54446.385     1.421E-21
  54446.456     1.422E-21
  54446.527     1.472E-21
  54446.598     1.555E-21
  54446.669     1.632E-21
  54446.740     1.718E-21
  54446.811     1.786E-21
  54446.882     1.855E-21
  54446.954     1.883E-21
  54447.025     1.898E-21
  54447.096     1.899E-21
  54447.167     1.906E-21
  54447.238     1.873E-21
  54447.309     1.843E-21
  54447.380     1.811E-21
  54447.451     1.762E-21
  54447.522     1.741E-21
  54448.612     2.037E-21
  54449.479     2.766E-21
  54450.372     4.211E-21
  54451.238     5.431E-21
  54451.322     6.143E-21
  54451.408     6.444E-21
  54451.493     6.909E-21
  54451.579     7.266E-21
  54451.665     7.260E-21
  54451.751     7.269E-21
  54451.837     7.547E-21
  54451.923     8.175E-21
  54452.009     9.308E-21
  54452.094     1.049E-20
  54452.180     1.152E-20
  54452.266     1.263E-20
  54452.352     1.393E-20
  54452.438     1.541E-20
  54452.528     1.678E-20
  54452.614     1.811E-20
  54452.700     2.002E-20
  54452.785     2.279E-20
  54452.871     2.614E-20
  54452.957     3.000E-20
  54453.041     3.481E-20
  54453.127     4.077E-20
  54453.213     4.836E-20
  54453.299     5.828E-20
  54453.396     7.040E-20
  54453.481     8.393E-20
  54453.567     9.869E-20
  54453.656     1.128E-19
  54453.741     1.238E-19
  54453.827     1.333E-19
  54453.913     1.408E-19
  54453.999     1.424E-19
  54454.085     1.410E-19
  54454.171     1.400E-19
  54454.256     1.387E-19
  54454.342     1.359E-19
  54454.428     1.313E-19
  54454.514     1.253E-19
  54454.600     1.183E-19
  54454.686     1.108E-19
  54454.771     1.024E-19
  54454.855     9.351E-20
  54454.941     8.589E-20
  54455.026     7.945E-20
  54455.112     7.217E-20
  54455.198     6.340E-20
  54455.273     5.457E-20
  54455.359     4.778E-20
  54455.445     4.244E-20
  54455.531     3.751E-20
  54455.616     3.347E-20
  54455.702     3.052E-20
  54455.788     2.806E-20
  54455.875     2.551E-20
  54455.961     2.251E-20
  54456.047     1.937E-20
  54456.133     1.722E-20
  54456.219     1.635E-20
  54456.300     1.616E-20
  54456.386     1.603E-20
  54456.476     1.598E-20
  54456.558     1.599E-20
  54456.648     1.580E-20
  54456.729     1.506E-20
  54456.815     1.393E-20
  54456.901     1.261E-20
  54456.987     1.129E-20
  54457.073     1.038E-20
  54457.159     9.895E-21
  54457.244     9.547E-21
  54457.330     9.152E-21
  54457.416     8.581E-21
  54457.502     8.103E-21
  54457.588     7.992E-21
  54457.674     7.798E-21
  54457.759     7.577E-21
  54457.845     7.955E-21
  54457.931     8.846E-21
  54458.017     9.615E-21
  54458.103     1.004E-20
  54458.189     1.033E-20
  54458.274     1.109E-20
  54458.365     1.216E-20
  54458.446     1.296E-20
  54458.532     1.323E-20
  54458.618     1.305E-20
  54458.708     1.244E-20
  54458.789     1.136E-20
  54458.875     1.031E-20
  54458.961     9.978E-21
  54459.047     1.033E-20
  54459.133     1.081E-20
  54459.219     1.116E-20
  54459.304     1.136E-20
  54459.390     1.142E-20
  54459.476     1.157E-20
  54459.562     1.199E-20
  54459.648     1.270E-20
  54459.734     1.356E-20
  54459.819     1.411E-20
  54459.905     1.428E-20
  54459.991     1.450E-20
  54460.081     1.511E-20
  54460.167     1.605E-20
  54460.249     1.724E-20
  54460.339     1.850E-20
  54460.425     2.010E-20
  54460.510     2.205E-20
  54460.596     2.431E-20
  54460.681     2.680E-20
  54460.768     2.952E-20
  54460.854     3.291E-20
  54460.938     3.742E-20
  54461.024     4.382E-20
  54461.111     5.307E-20
  54461.206     6.492E-20
  54461.292     7.807E-20
  54461.378     9.355E-20
  54461.464     1.130E-19
  54461.552     1.357E-19
  54461.638     1.573E-19
  54461.724     1.752E-19
  54461.810     1.891E-19
  54461.896     1.986E-19
  54461.981     2.040E-19
  54462.083     2.049E-19
  54462.153     1.989E-19
  54462.255     1.876E-19
  54462.341     1.777E-19
  54462.410     1.711E-19
  54462.496     1.635E-19
  54462.582     1.520E-19
  54462.668     1.361E-19
  54462.751     1.192E-19
  54462.837     1.043E-19
  54462.923     9.091E-20
  54463.009     7.837E-20
  54463.095     6.690E-20
  54463.170     5.731E-20
  54463.255     5.008E-20
  54463.341     4.418E-20
  54463.427     3.904E-20
  54463.513     3.482E-20
  54463.599     3.120E-20
  54463.686     2.767E-20
  54463.772     2.463E-20
  54463.858     2.227E-20
  54463.944     2.024E-20
  54464.025     1.846E-20
  54464.115     1.662E-20
  54464.197     1.457E-20
  54464.283     1.304E-20
  54464.373     1.227E-20
  54464.454     1.163E-20
  54464.540     1.113E-20
  54464.626     1.081E-20
  54464.712     1.027E-20
  54464.798     9.533E-21
  54464.883     8.772E-21
  54464.969     7.951E-21
  54465.055     7.227E-21
  54465.141     6.870E-21
  54465.227     6.807E-21
  54465.313     6.854E-21
  54465.398     6.543E-21
  54465.484     5.811E-21
  54465.570     5.198E-21
  54465.656     5.126E-21
  54465.742     5.229E-21
  54465.827     5.157E-21
  54465.913     4.984E-21
  54465.999     4.737E-21
  54466.085     4.320E-21
  54466.171     4.107E-21
  54466.257     4.311E-21
  54466.342     4.534E-21
  54466.428     4.430E-21
  54466.514     3.966E-21
  54466.600     3.519E-21
  54466.686     3.530E-21
  54466.772     3.950E-21
  54466.857     4.282E-21
  54466.943     4.303E-21
  54467.029     4.431E-21
  54467.115     4.928E-21
  54467.201     5.605E-21
  54467.287     6.226E-21
  54467.372     6.575E-21
  54467.458     7.076E-21
  54467.544     8.095E-21
  54467.630     9.105E-21
  54467.716     9.424E-21
  54467.802     9.096E-21
  54467.887     8.602E-21
  54467.973     8.147E-21
  54468.059     7.662E-21
  54468.145     7.445E-21
  54468.231     7.541E-21
  54468.316     7.433E-21
  54468.402     7.005E-21
  54468.488     6.724E-21
  54468.574     6.764E-21
  54468.660     6.889E-21
  54468.746     7.103E-21
  54468.831     7.486E-21
  54468.917     7.652E-21
  54469.003     7.411E-21
  54469.089     7.206E-21
  54469.175     7.208E-21
  54469.261     7.151E-21
  54469.346     6.959E-21
  54469.432     7.054E-21
  54469.518     7.696E-21
  54469.604     8.507E-21
  54469.690     9.044E-21
  54469.775     8.818E-21
  54469.861     7.973E-21
  54469.947     7.509E-21
  54470.033     7.476E-21
  54470.119     6.934E-21
  54470.205     5.966E-21
  54470.290     5.280E-21
  54470.376     4.865E-21
  54470.462     4.412E-21
  54470.548     4.002E-21
  54470.634     3.859E-21
  54470.720     4.155E-21
  54470.805     4.921E-21
  54470.891     5.753E-21
  54470.977     6.515E-21
  54471.063     7.309E-21
  54471.149     7.849E-21
  54471.234     7.859E-21
  54471.320     7.483E-21
  54471.406     6.996E-21
  54471.492     6.292E-21
  54471.578     5.295E-21
  54471.669     4.358E-21
  54471.756     3.968E-21
  54471.842     3.114E-21
  54472.099     2.903E-21
  54472.500     2.240E-21
  54472.914     1.775E-21
  54473.100     1.650E-21
  54473.349     1.545E-21
  54473.421     1.505E-21
  54473.492     1.436E-21
  54473.563     1.385E-21
  54473.634     1.352E-21
  54473.705     1.314E-21
  54473.776     1.274E-21
  54473.848     1.254E-21
  54473.919     1.242E-21
  54473.990     1.226E-21
  54474.061     1.196E-21
  54474.132     1.184E-21
  54474.204     1.166E-21
  54474.275     1.132E-21
  54474.346     1.101E-21
  54474.417     1.082E-21
  54474.488     1.067E-21
  54474.560     1.043E-21
  54474.631     1.030E-21
  54474.702     1.015E-21
  54474.773     1.005E-21
  54474.844     9.961E-22
  54474.916     9.802E-22
  54474.987     9.615E-22
  54475.058     9.568E-22
  54475.129     9.655E-22
  54475.200     9.706E-22
  54475.271     9.757E-22
  54475.343     9.718E-22
  54475.414     9.865E-22
  54475.485     1.020E-21
  54475.556     1.059E-21
  54475.627     1.120E-21
  54475.699     1.218E-21
  54475.770     1.316E-21
  54475.841     1.421E-21
  54475.912     1.523E-21
  54475.983     1.623E-21
  54476.055     1.599E-21
  54476.126     1.539E-21
  54476.197     1.445E-21
  54476.268     1.314E-21
  54476.339     1.200E-21
  54476.411     1.098E-21
  54476.482     1.025E-21
  54476.553     9.678E-22
  54476.624     9.330E-22
  54476.695     9.043E-22
  54476.767     8.854E-22
  54476.838     8.677E-22
  54476.909     8.620E-22
  54476.980     8.621E-22
  54477.051     8.609E-22
  54477.123     8.535E-22
  54477.194     8.562E-22
  54477.265     8.616E-22
  54477.336     8.644E-22
  54477.407     8.590E-22
  54477.479     8.523E-22
  54477.550     8.528E-22
  54477.621     8.512E-22
  54477.692     8.469E-22
  54477.763     8.364E-22
  54477.835     8.407E-22
  54477.906     8.466E-22
  54477.977     8.608E-22
  54478.048     8.738E-22
  54478.119     8.965E-22
  54478.191     9.145E-22
  54478.262     9.439E-22
  54478.333     9.804E-22
  54478.404     1.034E-21
  54478.475     1.101E-21
  54478.547     1.156E-21
  54478.603     1.367E-21
  54478.689     1.599E-21
  54478.863     1.666E-21
  54478.949     1.913E-21
  54479.036     2.447E-21
  54479.123     2.794E-21
  54479.209     2.539E-21
  54479.296     1.874E-21
  54479.383     1.374E-21
  54479.469     1.189E-21
  54479.556     1.290E-21
  54479.643     1.596E-21
  54479.729     1.958E-21
  54479.816     2.074E-21
  54479.903     2.055E-21
  54479.989     2.308E-21
  54480.076     2.840E-21
  54480.163     3.205E-21
  54480.336     2.870E-21
  54480.423     2.299E-21
  54480.596     2.271E-21
  54480.683     2.556E-21
  54480.769     2.426E-21
  54480.856     2.092E-21
  54480.943     2.184E-21
  54481.025     2.392E-21
  54481.104     2.155E-21
  54481.218     1.690E-21
  54481.298     1.427E-21
  54481.373     1.343E-21
  54481.515     1.257E-21
  54481.586     1.213E-21
  54481.657     1.190E-21
  54481.728     1.156E-21
  54481.800     1.129E-21
  54481.871     1.113E-21
  54481.942     1.105E-21
  54482.013     1.081E-21
  54482.085     1.059E-21
  54482.156     1.042E-21
  54482.227     1.027E-21
  54482.298     1.021E-21
  54482.369     9.979E-22
  54482.441     9.794E-22
  54482.512     9.642E-22
  54482.583     9.575E-22
  54482.654     9.594E-22
  54482.725     9.612E-22
  54482.797     9.545E-22
  54482.868     9.558E-22
  54482.939     9.608E-22
  54483.010     9.676E-22
  54483.082     9.848E-22
  54483.153     9.997E-22
  54483.224     1.013E-21
  54483.295     1.031E-21
  54483.366     1.043E-21
  54483.438     1.066E-21
  54483.509     1.066E-21
  54483.580     1.075E-21
  54483.651     1.092E-21
  54483.723     1.115E-21
  54483.794     1.159E-21
  54483.865     1.204E-21
  54483.936     1.255E-21
  54484.007     1.328E-21
  54485.035     2.415E-21
  54485.103     3.135E-21
  54485.189     4.035E-21
  54485.276     5.200E-21
  54485.363     6.311E-21
  54485.449     6.627E-21
  54485.536     6.116E-21
  54485.623     5.597E-21
  54485.709     5.110E-21
  54485.796     4.396E-21
  54485.883     3.461E-21
  54485.969     2.674E-21
  54486.056     2.331E-21
  54486.143     2.201E-21
  54486.316     2.302E-21
  54486.403     3.016E-21
  54486.489     4.078E-21
  54486.576     5.067E-21
  54486.663     5.779E-21
  54486.749     6.172E-21
  54486.836     6.377E-21
  54486.923     6.561E-21
  54487.009     6.807E-21
  54487.096     7.042E-21
  54487.183     6.955E-21
  54487.269     6.482E-21
  54487.356     5.743E-21
  54487.443     5.081E-21
  54487.529     4.557E-21
  54487.616     4.070E-21
  54487.703     3.523E-21
  54487.789     2.929E-21
  54487.876     2.435E-21
  54487.963     2.167E-21
  54488.049     2.138E-21
  54488.136     2.488E-21
  54488.223     3.045E-21
  54488.309     3.405E-21
  54488.396     3.367E-21
  54488.483     3.031E-21
  54488.569     2.759E-21
  54488.656     2.791E-21
  54488.743     3.210E-21
  54488.829     3.736E-21
  54488.916     3.937E-21
  54489.003     4.033E-21
  54489.089     4.754E-21
  54489.176     6.046E-21
  54489.263     7.284E-21
  54489.349     8.501E-21
  54489.436     1.023E-20
  54489.522     1.233E-20
  54489.609     1.417E-20
  54489.696     1.550E-20
  54489.782     1.657E-20
  54489.876     1.708E-20
  54489.956     1.665E-20
  54490.042     1.563E-20
  54490.129     1.493E-20
  54490.216     1.501E-20
  54490.310     1.547E-20
  54490.389     1.555E-20
  54490.483     1.529E-20
  54490.562     1.496E-20
  54490.649     1.485E-20
  54490.736     1.508E-20
  54490.822     1.550E-20
  54490.916     1.569E-20
  54490.996     1.547E-20
  54491.082     1.511E-20
  54491.169     1.476E-20
  54491.256     1.434E-20
  54491.342     1.384E-20
  54491.429     1.319E-20
  54491.516     1.248E-20
  54491.602     1.195E-20
  54491.689     1.162E-20
  54491.776     1.130E-20
  54491.862     1.077E-20
  54491.949     1.033E-20
  54492.036     1.006E-20
  54492.122     9.643E-21
  54492.209     9.039E-21
  54492.296     8.354E-21
  54492.382     7.764E-21
  54492.469     7.500E-21
  54492.556     7.356E-21
  54492.642     7.162E-21
  54492.729     7.030E-21
  54492.816     6.826E-21
  54492.902     6.516E-21
  54492.989     6.130E-21
  54493.076     5.553E-21
  54493.162     5.137E-21
  54493.249     5.377E-21
  54493.335     6.046E-21
  54493.422     6.554E-21
  54493.509     6.674E-21
  54493.595     6.793E-21
  54493.682     7.075E-21
  54493.769     7.446E-21
  54493.855     7.864E-21
  54493.942     8.023E-21
  54494.029     7.873E-21
  54494.115     7.832E-21
  54494.202     7.933E-21
  54494.289     8.031E-21
  54494.375     8.514E-21
  54494.462     9.252E-21
  54494.549     9.694E-21
  54494.635     1.007E-20
  54494.722     1.045E-20
  54494.809     1.067E-20
  54494.895     1.096E-20
  54494.982     1.156E-20
  54495.069     1.282E-20
  54495.155     1.481E-20
  54495.249     1.674E-20
  54495.329     1.831E-20
  54495.422     2.024E-20
  54495.509     2.220E-20
  54495.596     2.336E-20
  54495.682     2.408E-20
  54495.769     2.556E-20
  54495.856     2.894E-20
  54495.948     3.413E-20
  54496.034     3.939E-20
  54496.121     4.427E-20
  54496.207     5.076E-20
  54496.300     5.996E-20
  54496.387     7.176E-20
  54496.474     8.754E-20
  54496.567     1.093E-19
  54496.637     1.353E-19
  54496.745     1.597E-19
  54496.809     1.794E-19
  54496.896     1.948E-19
  54496.982     2.048E-19
  54497.069     2.083E-19
  54497.155     2.080E-19
  54497.242     2.071E-19
  54497.329     2.058E-19
  54497.415     2.041E-19
  54497.502     1.996E-19
  54497.589     1.898E-19
  54497.675     1.772E-19
  54497.762     1.634E-19
  54497.849     1.481E-19
  54497.937     1.318E-19
  54498.040     1.164E-19
  54498.126     1.014E-19
  54498.207     8.721E-20
  54498.300     7.516E-20
  54498.380     6.477E-20
  54498.460     5.590E-20
  54498.547     4.904E-20
  54498.634     4.393E-20
  54498.720     4.005E-20
  54498.807     3.653E-20
  54498.889     3.283E-20
  54498.975     2.958E-20
  54499.062     2.746E-20
  54499.149     2.564E-20
  54499.228     2.340E-20
  54499.322     2.120E-20
  54499.401     1.965E-20
  54499.488     1.871E-20
  54499.582     1.778E-20
  54499.661     1.656E-20
  54499.748     1.544E-20
  54499.835     1.467E-20
  54499.921     1.429E-20
  54500.015     1.387E-20
  54500.095     1.325E-20
  54500.181     1.286E-20
  54500.268     1.287E-20
  54500.354     1.315E-20
  54500.441     1.333E-20
  54500.528     1.305E-20
  54500.614     1.267E-20
  54500.701     1.268E-20
  54500.788     1.306E-20
  54500.874     1.353E-20
  54500.961     1.376E-20
  54501.048     1.366E-20
  54501.134     1.365E-20
  54501.221     1.367E-20
  54501.308     1.353E-20
  54501.394     1.355E-20
  54501.481     1.395E-20
  54501.568     1.462E-20
  54501.654     1.547E-20
  54501.748     1.656E-20
  54501.828     1.760E-20
  54501.921     1.811E-20
  54502.008     1.842E-20
  54502.095     1.935E-20
  54502.181     2.101E-20
  54502.268     2.319E-20
  54502.355     2.607E-20
  54502.446     2.899E-20
  54502.533     3.096E-20
  54502.615     3.305E-20
  54502.706     3.720E-20
  54502.793     4.263E-20
  54502.880     4.840E-20
  54502.966     5.580E-20
  54503.053     6.579E-20
  54503.152     7.877E-20
  54503.239     9.441E-20
  54503.325     1.123E-19
  54503.396     1.344E-19
  54503.481     1.617E-19
  54503.568     1.910E-19
  54503.654     2.177E-19
  54503.733     2.404E-19
  54503.820     2.600E-19
  54503.907     2.794E-19
  54503.993     2.940E-19
  54504.080     2.944E-19
  54504.167     2.800E-19
  54504.261     2.606E-19
  54504.348     2.403E-19
  54504.434     2.198E-19
  54504.521     2.015E-19
  54504.608     1.838E-19
  54504.694     1.620E-19
  54504.783     1.361E-19
  54504.885     1.114E-19
  54504.972     9.160E-20
  54505.058     7.700E-20
  54505.139     6.550E-20
  54505.219     5.649E-20
  54505.306     5.008E-20
  54505.392     4.497E-20
  54505.479     4.081E-20
  54505.566     3.722E-20
  54505.652     3.314E-20
  54505.734     2.872E-20
  54505.821     2.505E-20
  54505.907     2.250E-20
  54505.994     2.117E-20
  54506.080     2.048E-20
  54506.167     1.951E-20
  54506.247     1.805E-20
  54506.340     1.687E-20
  54506.420     1.630E-20
  54506.507     1.604E-20
  54506.593     1.560E-20
  54506.680     1.485E-20
  54506.766     1.417E-20
  54506.853     1.363E-20
  54506.940     1.300E-20
  54507.026     1.207E-20
  54507.113     1.081E-20
  54507.200     9.650E-21
  54507.286     9.193E-21
  54507.373     9.191E-21
  54507.460     8.881E-21
  54507.546     8.393E-21
  54507.633     8.005E-21
  54507.720     7.741E-21
  54507.806     7.853E-21
  54507.893     8.396E-21
  54507.979     9.040E-21
  54508.066     9.604E-21
  54508.153     9.974E-21
  54508.239     1.028E-20
  54508.326     1.088E-20
  54508.413     1.123E-20
  54508.499     1.065E-20
  54508.586     9.388E-21
  54508.673     8.279E-21
  54508.759     7.682E-21
  54508.846     7.420E-21
  54508.933     7.171E-21
  54509.019     6.774E-21
  54509.106     6.150E-21
  54509.192     5.511E-21
  54509.279     5.222E-21
  54509.366     5.239E-21
  54509.452     5.121E-21
  54509.539     4.866E-21
  54509.626     4.452E-21
  54509.712     3.992E-21
  54509.799     3.952E-21
  54509.886     4.206E-21
  54509.972     4.156E-21
  54510.059     3.886E-21
  54510.146     3.429E-21
  54510.232     2.865E-21
  54510.319     2.765E-21
  54510.405     3.276E-21
  54510.492     3.780E-21
  54510.579     3.872E-21
  54510.665     3.625E-21
  54510.752     3.352E-21
  54510.839     3.123E-21
  54510.925     2.725E-21
  54511.012     2.275E-21
  54511.099     2.212E-21
  54511.185     2.757E-21
  54511.272     3.218E-21
  54511.359     3.143E-21
  54511.445     2.750E-21
  54511.532     2.387E-21
  54511.618     2.233E-21
  54511.705     2.119E-21
  54511.792     1.950E-21
  54511.878     2.137E-21
  54511.965     2.864E-21
  54512.052     3.601E-21
  54512.138     3.801E-21
  54512.225     3.474E-21
  54512.312     2.836E-21
  54512.398     2.247E-21
  54512.485     2.072E-21
  54512.572     2.328E-21
  54512.658     2.729E-21
  54512.745     2.956E-21
  54512.831     3.074E-21
  54512.918     2.967E-21
  54513.005     2.775E-21
  54513.091     2.820E-21
  54513.178     3.100E-21
  54513.265     3.080E-21
  54513.351     2.664E-21
  54513.438     2.444E-21
  54513.525     2.643E-21
  54513.611     3.220E-21
  54513.698     4.102E-21
  54513.784     4.716E-21
  54513.871     4.876E-21
  54513.958     4.730E-21
  54514.044     4.523E-21
  54514.131     4.548E-21
  54514.218     4.483E-21
  54514.304     3.914E-21
  54514.391     3.496E-21
  54514.478     3.557E-21
  54514.564     3.979E-21
  54514.651     4.468E-21
  54514.738     4.666E-21
  54514.824     4.571E-21
  54514.911     4.363E-21
  54514.997     4.128E-21
  54515.084     4.022E-21
  54515.171     3.892E-21
  54515.257     3.432E-21
  54515.344     2.810E-21
  54515.431     2.597E-21
  54515.517     2.699E-21
  54515.604     2.816E-21
  54515.691     3.021E-21
  54515.777     3.116E-21
  54515.864     2.899E-21
  54515.948     2.352E-21
  54516.027     1.864E-21
  54516.137     1.579E-21
  54516.217     1.431E-21
  54516.293     1.368E-21
  54516.364     1.349E-21
  54516.435     1.353E-21
  54516.506     1.364E-21
  54516.578     1.376E-21
  54516.649     1.393E-21
  54516.720     1.426E-21
  54516.791     1.465E-21
  54516.863     1.508E-21
  54516.934     1.530E-21
  54517.005     1.549E-21
  54517.077     1.535E-21
  54517.148     1.510E-21
  54517.219     1.473E-21
  54517.291     1.429E-21
  54517.362     1.391E-21
  54517.433     1.373E-21
  54517.505     1.360E-21
  54517.576     1.369E-21
  54517.647     1.379E-21
  54517.719     1.407E-21
  54517.790     1.451E-21
  54517.861     1.523E-21
  54517.933     1.582E-21
  54518.004     1.676E-21
  54518.075     1.791E-21
  54518.147     1.866E-21
  54518.218     1.926E-21
  54518.289     1.963E-21
  54518.361     1.956E-21
  54518.432     1.940E-21
  54518.503     1.923E-21
  54518.575     1.875E-21
  54518.646     1.816E-21
  54518.717     1.778E-21
  54518.788     1.787E-21
  54518.860     1.762E-21
  54518.931     1.757E-21
  54519.002     1.751E-21
  54519.074     1.778E-21
  54519.145     1.789E-21
  54519.216     1.775E-21
  54519.288     1.767E-21
  54519.359     1.763E-21
  54519.430     1.794E-21
  54519.502     1.825E-21
  54519.573     1.838E-21
  54519.644     1.852E-21
  54519.762     1.938E-21
  54519.849     2.183E-21
  54519.936     2.546E-21
  54520.022     2.985E-21
  54520.109     3.082E-21
  54520.196     2.748E-21
  54520.282     2.589E-21
  54520.369     2.755E-21
  54520.456     2.944E-21
  54520.542     3.035E-21
  54520.629     3.179E-21
  54520.715     3.500E-21
  54520.802     3.917E-21
  54520.889     4.249E-21
  54520.975     4.559E-21
  54521.062     4.617E-21
  54521.149     4.245E-21
  54521.235     3.892E-21
  54521.322     3.624E-21
  54521.408     3.182E-21
  54521.495     2.711E-21
  54521.582     2.647E-21
  54521.668     2.963E-21
  54521.755     3.156E-21
  54521.842     2.757E-21
  54521.928     2.259E-21
  54522.015     2.675E-21
  54522.102     3.739E-21
  54522.188     4.409E-21
  54522.275     4.695E-21
  54522.361     4.837E-21
  54522.448     4.703E-21
  54522.535     4.405E-21
  54522.621     4.227E-21
  54522.708     4.160E-21
  54522.795     3.771E-21
  54522.881     3.195E-21
  54522.968     3.199E-21
  54523.054     3.691E-21
  54523.141     3.950E-21
  54523.228     3.640E-21
  54523.314     2.967E-21
  54523.401     2.286E-21
  54523.488     1.996E-21
  54523.574     2.082E-21
  54523.661     2.125E-21
  54523.748     2.121E-21
  54523.834     2.038E-21
  54523.921     2.025E-21
  54524.007     2.359E-21
  54524.094     2.745E-21
  54524.181     2.905E-21
  54524.267     2.851E-21
  54524.354     2.662E-21
  54524.441     2.559E-21
  54524.527     2.600E-21
  54524.614     2.743E-21
  54524.700     3.118E-21
  54524.787     3.521E-21
  54524.874     3.583E-21
  54524.960     3.455E-21
  54525.047     3.318E-21
  54525.134     3.047E-21
  54525.220     2.800E-21
  54525.307     2.825E-21
  54525.394     2.896E-21
  54525.480     2.747E-21
  54525.567     2.485E-21
  54525.653     2.372E-21
  54525.740     2.502E-21
  54525.827     2.777E-21
  54525.913     2.695E-21
  54526.000     2.348E-21
  54526.087     2.322E-21
  54526.173     2.783E-21
  54526.260     3.364E-21
  54526.346     3.836E-21
  54526.433     4.191E-21
  54526.520     4.416E-21
  54526.606     4.269E-21
  54526.693     3.638E-21
  54526.780     2.947E-21
  54526.866     2.657E-21
  54526.953     2.819E-21
  54527.039     3.113E-21
  54527.126     3.430E-21
  54527.213     3.838E-21
  54527.299     4.450E-21
  54527.386     5.084E-21
  54527.473     5.452E-21
  54527.559     5.445E-21
  54527.646     5.352E-21
  54527.732     5.254E-21
  54527.819     5.140E-21
  54527.906     4.954E-21
  54527.992     4.697E-21
  54528.079     4.331E-21
  54528.166     3.962E-21
  54528.252     3.657E-21
  54528.339     3.213E-21
  54528.425     3.140E-21
  54528.512     3.697E-21
  54528.599     4.250E-21
  54528.685     4.356E-21
  54528.772     4.280E-21
  54528.859     4.398E-21
  54528.945     4.546E-21
  54529.032     4.570E-21
  54529.119     4.781E-21
  54529.205     5.229E-21
  54529.292     5.478E-21
  54529.378     5.148E-21
  54529.465     4.597E-21
  54529.552     4.504E-21
  54529.638     4.839E-21
  54529.725     5.069E-21
  54529.812     5.274E-21
  54529.898     5.473E-21
  54529.985     5.448E-21
  54530.071     5.440E-21
  54530.158     5.756E-21
  54530.245     6.093E-21
  54530.331     6.203E-21
  54530.418     6.587E-21
  54530.505     7.467E-21
  54530.591     8.131E-21
  54530.678     8.175E-21
  54530.764     7.933E-21
  54530.851     7.775E-21
  54530.938     7.836E-21
  54531.024     8.477E-21
  54531.111     9.398E-21
  54531.198     1.006E-20
  54531.284     1.056E-20
  54531.371     1.123E-20
  54531.457     1.206E-20
  54531.544     1.270E-20
  54531.631     1.342E-20
  54531.724     1.434E-20
  54531.811     1.505E-20
  54531.891     1.561E-20
  54531.977     1.669E-20
  54532.071     1.827E-20
  54532.158     1.959E-20
  54532.244     2.083E-20
  54532.331     2.273E-20
  54532.417     2.543E-20
  54532.504     2.910E-20
  54532.596     3.360E-20
  54532.683     3.848E-20
  54532.769     4.385E-20
  54532.856     5.016E-20
  54532.949     5.835E-20
  54533.029     6.979E-20
  54533.128     8.480E-20
  54533.215     1.017E-19
  54533.302     1.218E-19
  54533.388     1.476E-19
  54533.457     1.772E-19
  54533.544     2.048E-19
  54533.631     2.261E-19
  54533.717     2.426E-19
  54533.796     2.596E-19
  54533.883     2.733E-19
  54533.969     2.774E-19
  54534.056     2.732E-19
  54534.143     2.627E-19
  54534.237     2.470E-19
  54534.324     2.321E-19
  54534.410     2.190E-19
  54534.497     2.028E-19
  54534.583     1.849E-19
  54534.670     1.676E-19
  54534.758     1.498E-19
  54534.845     1.315E-19
  54534.932     1.142E-19
  54535.034     9.819E-20
  54535.121     8.435E-20
  54535.207     7.351E-20
  54535.288     6.445E-20
  54535.368     5.657E-20
  54535.455     5.004E-20
  54535.541     4.473E-20
  54535.623     4.048E-20
  54535.714     3.746E-20
  54535.801     3.542E-20
  54535.882     3.337E-20
  54535.969     3.092E-20
  54536.056     2.863E-20
  54536.142     2.692E-20
  54536.229     2.545E-20
  54536.315     2.403E-20
  54536.402     2.255E-20
  54536.489     2.139E-20
  54536.575     2.072E-20
  54536.662     2.045E-20
  54536.741     2.056E-20
  54536.835     2.069E-20
  54536.922     2.041E-20
  54537.008     2.006E-20
  54537.095     1.992E-20
  54537.182     1.994E-20
  54537.268     2.043E-20
  54537.355     2.119E-20
  54537.442     2.187E-20
  54537.528     2.242E-20
  54537.608     2.288E-20
  54537.701     2.375E-20
  54537.788     2.530E-20
  54537.875     2.702E-20
  54537.961     2.851E-20
  54538.048     3.015E-20
  54538.134     3.244E-20
  54538.226     3.564E-20
  54538.313     4.008E-20
  54538.400     4.615E-20
  54538.486     5.332E-20
  54538.579     6.049E-20
  54538.659     6.857E-20
  54538.759     8.033E-20
  54538.845     9.623E-20
  54538.932     1.166E-19
  54539.003     1.420E-19
  54539.088     1.712E-19
  54539.174     2.003E-19
  54539.261     2.293E-19
  54539.340     2.596E-19
  54539.427     2.857E-19
  54539.513     3.009E-19
  54539.600     3.086E-19
  54539.686     3.185E-19
  54539.773     3.245E-19
  54539.860     3.109E-19
  54539.954     2.815E-19
  54540.041     2.507E-19
  54540.127     2.251E-19
  54540.214     2.014E-19
  54540.300     1.751E-19
  54540.389     1.478E-19
  54540.475     1.243E-19
  54540.562     1.057E-19
  54540.664     8.889E-20
  54540.751     7.397E-20
  54540.825     6.227E-20
  54540.912     5.428E-20
  54540.998     4.846E-20
  54541.085     4.364E-20
  54541.171     3.980E-20
  54541.258     3.639E-20
  54541.339     3.307E-20
  54541.431     3.008E-20
  54541.513     2.699E-20
  54541.599     2.406E-20
  54541.686     2.203E-20
  54541.765     2.076E-20
  54541.859     1.955E-20
  54541.946     1.822E-20
  54542.025     1.704E-20
  54542.119     1.591E-20
  54542.198     1.469E-20
  54542.285     1.370E-20
  54542.371     1.293E-20
  54542.458     1.209E-20
  54542.545     1.105E-20
  54542.631     1.001E-20
  54542.718     9.524E-21
  54542.804     9.772E-21
  54542.891     1.026E-20
  54542.978     1.034E-20
  54543.064     9.941E-21
  54543.151     9.491E-21
  54543.238     9.539E-21
  54543.324     9.813E-21
  54543.411     9.686E-21
  54543.497     9.435E-21
  54543.584     9.352E-21
  54543.671     9.181E-21
  54543.757     8.868E-21
  54543.844     8.262E-21
  54543.930     7.608E-21
  54544.017     7.013E-21
  54544.104     6.476E-21
  54544.190     6.470E-21
  54544.277     6.931E-21
  54544.364     7.146E-21
  54544.450     6.749E-21
  54544.537     5.888E-21
  54544.623     5.101E-21
  54544.710     4.918E-21
  54544.797     5.266E-21
  54544.883     5.592E-21
  54544.970     5.613E-21
  54545.056     5.295E-21
  54545.143     4.832E-21
  54545.230     4.442E-21
  54545.316     4.176E-21
  54545.403     4.063E-21
  54545.489     4.128E-21
  54545.576     4.157E-21
  54545.663     4.159E-21
  54545.749     3.835E-21
  54545.836     3.102E-21
  54545.923     2.432E-21
  54546.009     2.292E-21
  54546.096     2.532E-21
  54546.182     2.882E-21
  54546.269     3.024E-21
  54546.356     3.138E-21
  54546.442     3.335E-21
  54546.529     3.265E-21
  54546.615     3.306E-21
  54546.702     3.605E-21
  54546.789     3.908E-21
  54546.875     4.068E-21
  54546.962     3.847E-21
  54547.048     3.346E-21
  54547.135     2.955E-21
  54547.222     2.681E-21
  54547.308     2.659E-21
  54547.395     2.788E-21
  54547.482     2.871E-21
  54547.568     2.846E-21
  54547.655     2.833E-21
  54547.741     2.818E-21
  54547.828     2.788E-21
  54547.915     3.095E-21
  54548.001     3.598E-21
  54548.088     3.692E-21
  54548.174     3.181E-21
  54548.261     2.698E-21
  54548.348     2.918E-21
  54548.434     3.239E-21
  54548.521     2.888E-21
  54548.607     2.274E-21
  54548.694     1.880E-21
  54548.781     1.744E-21
  54548.867     1.753E-21
  54548.954     1.862E-21
  54549.041     1.885E-21
  54549.127     1.967E-21
  54549.214     2.206E-21
  54549.300     2.352E-21
  54549.387     2.296E-21
  54549.474     2.141E-21
  54549.560     2.046E-21
  54549.647     2.027E-21
  54549.733     2.046E-21
  54549.820     2.096E-21
  54549.907     2.402E-21
  54549.993     2.816E-21
  54550.080     2.931E-21
  54550.166     2.800E-21
  54550.253     2.513E-21
  54550.340     2.325E-21
  54550.426     2.533E-21
  54550.513     2.847E-21
  54550.599     3.034E-21
  54550.686     3.188E-21
  54550.773     3.256E-21
  54550.859     3.215E-21
  54550.946     3.135E-21
  54551.032     3.090E-21
  54551.119     3.042E-21
  54551.206     3.029E-21
  54551.292     3.383E-21
  54551.379     4.118E-21
  54551.466     4.815E-21
  54551.552     5.476E-21
  54551.639     6.418E-21
  54551.725     7.759E-21
  54551.812     9.371E-21
  54551.899     1.103E-20
  54551.985     1.290E-20
  54552.079     1.494E-20
  54552.158     1.633E-20
  54552.252     1.673E-20
  54552.339     1.627E-20
  54552.418     1.548E-20
  54552.512     1.479E-20
  54552.591     1.424E-20
  54552.678     1.394E-20
  54552.765     1.380E-20
  54552.851     1.372E-20
  54552.938     1.360E-20
  54553.024     1.342E-20
  54553.111     1.380E-20
  54553.198     1.467E-20
  54553.292     1.502E-20
  54553.371     1.474E-20
  54553.457     1.448E-20
  54553.544     1.417E-20
  54553.631     1.374E-20
  54553.717     1.327E-20
  54553.804     1.279E-20
  54553.890     1.250E-20
  54553.977     1.243E-20
  54554.064     1.224E-20
  54554.150     1.203E-20
  54554.237     1.183E-20
  54554.324     1.148E-20
  54554.410     1.099E-20
  54554.497     1.041E-20
  54554.583     9.883E-21
  54554.670     9.188E-21
  54554.757     8.231E-21
  54554.843     7.176E-21
  54554.930     6.397E-21
  54555.016     5.868E-21
  54555.103     5.280E-21
  54555.190     4.770E-21
  54555.276     4.594E-21
  54555.363     4.620E-21
  54555.449     4.791E-21
  54555.536     4.930E-21
  54555.623     4.705E-21
  54555.709     4.153E-21
  54555.796     3.595E-21
  54555.882     3.228E-21
  54555.969     3.230E-21
  54556.056     3.700E-21
  54556.142     4.113E-21
  54556.229     3.958E-21
  54556.315     3.319E-21
  54556.402     3.063E-21
  54556.489     3.425E-21
  54556.575     3.719E-21
  54556.662     3.800E-21
  54556.748     3.910E-21
  54556.835     3.813E-21
  54556.922     3.378E-21
  54557.008     2.943E-21
  54557.095     2.866E-21
  54557.181     3.215E-21
  54557.268     3.458E-21
  54557.355     3.336E-21
  54557.441     3.266E-21
  54557.528     3.376E-21
  54557.614     3.167E-21
  54557.701     2.895E-21
  54557.788     3.012E-21
  54557.874     3.309E-21
  54557.961     3.772E-21
  54558.047     4.334E-21
  54558.134     4.678E-21
  54558.221     4.633E-21
  54558.307     4.425E-21
  54558.394     4.323E-21
  54558.480     4.177E-21
  54558.567     3.801E-21
  54558.654     3.108E-21
  54558.740     2.477E-21
  54558.827     2.607E-21
  54558.913     3.387E-21
  54559.000     4.205E-21
  54559.087     4.768E-21
  54559.173     5.219E-21
  54559.260     5.523E-21
  54559.346     5.212E-21
  54559.433     4.588E-21
  54559.520     4.660E-21
  54559.606     5.223E-21
  54559.693     5.487E-21
  54559.779     5.450E-21
  54559.866     5.536E-21
  54559.953     5.911E-21
  54560.039     6.441E-21
  54560.126     6.972E-21
  54560.212     7.216E-21
  54560.299     6.941E-21
  54560.386     6.812E-21
  54560.472     7.425E-21
  54560.559     8.154E-21
  54560.645     8.525E-21
  54560.732     8.699E-21
  54560.819     8.876E-21
  54560.905     9.110E-21
  54560.992     9.317E-21
  54561.078     9.562E-21
  54561.165     9.768E-21
  54561.252     1.020E-20
  54561.338     1.092E-20
  54561.425     1.163E-20
  54561.511     1.253E-20
  54561.598     1.363E-20
  54561.685     1.457E-20
  54561.771     1.549E-20
  54561.858     1.629E-20
  54561.944     1.704E-20
  54562.031     1.796E-20
  54562.118     1.912E-20
  54562.211     2.049E-20
  54562.298     2.204E-20
  54562.385     2.377E-20
  54562.471     2.581E-20
  54562.558     2.802E-20
  54562.644     3.080E-20
  54562.731     3.474E-20
  54562.823     3.959E-20
  54562.910     4.426E-20
  54562.996     4.887E-20
  54563.083     5.479E-20
  54563.169     6.308E-20
  54563.269     7.414E-20
  54563.355     8.738E-20
  54563.442     1.025E-19
  54563.528     1.221E-19
  54563.615     1.495E-19
  54563.684     1.822E-19
  54563.771     2.135E-19
  54563.858     2.445E-19
  54563.937     2.775E-19
  54564.023     3.033E-19
  54564.110     3.181E-19
  54564.196     3.248E-19
  54564.283     3.234E-19
  54564.370     3.195E-19
  54564.456     3.172E-19
  54564.543     3.094E-19
  54564.629     2.881E-19
  54564.716     2.590E-19
  54564.810     2.302E-19
  54564.897     2.032E-19
  54564.983     1.792E-19
  54565.070     1.588E-19
  54565.179     1.403E-19
  54565.260     1.242E-19
  54565.347     1.111E-19
  54565.418     9.922E-20
  54565.520     8.698E-20
  54565.607     7.525E-20
  54565.687     6.545E-20
  54565.767     5.736E-20
  54565.854     5.122E-20
  54565.940     4.734E-20
  54566.027     4.491E-20
  54566.114     4.333E-20
  54566.200     4.251E-20
  54566.287     4.114E-20
  54566.368     3.855E-20
  54566.455     3.580E-20
  54566.541     3.434E-20
  54566.633     3.445E-20
  54566.714     3.469E-20
  54566.801     3.398E-20
  54566.888     3.312E-20
  54566.980     3.304E-20
  54567.066     3.340E-20
  54567.147     3.412E-20
  54567.234     3.544E-20
  54567.326     3.759E-20
  54567.413     4.026E-20
  54567.499     4.340E-20
  54567.586     4.693E-20
  54567.672     5.105E-20
  54567.759     5.625E-20
  54567.845     6.298E-20
  54567.945     7.158E-20
  54568.031     8.307E-20
  54568.118     9.971E-20
  54568.205     1.220E-19
  54568.274     1.472E-19
  54568.360     1.727E-19
  54568.447     1.997E-19
  54568.534     2.269E-19
  54568.620     2.528E-19
  54568.699     2.783E-19
  54568.786     3.016E-19
  54568.872     3.198E-19
  54568.959     3.254E-19
  54569.046     3.132E-19
  54569.132     2.910E-19
  54569.219     2.697E-19
  54569.305     2.503E-19
  54569.400     2.265E-19
  54569.486     1.975E-19
  54569.573     1.688E-19
  54569.661     1.430E-19
  54569.763     1.195E-19
  54569.850     1.004E-19
  54569.936     8.587E-20
  54570.023     7.368E-20
  54570.097     6.337E-20
  54570.183     5.620E-20
  54570.276     5.140E-20
  54570.357     4.640E-20
  54570.443     4.091E-20
  54570.530     3.605E-20
  54570.611     3.264E-20
  54570.698     3.056E-20
  54570.784     2.884E-20
  54570.871     2.657E-20
  54570.957     2.428E-20
  54571.044     2.285E-20
  54571.131     2.206E-20
  54571.217     2.155E-20
  54571.304     2.113E-20
  54571.390     2.060E-20
  54571.477     2.015E-20
  54571.564     2.062E-20
  54571.650     2.203E-20
  54571.737     2.339E-20
  54571.823     2.446E-20
  54571.910     2.609E-20
  54571.996     2.901E-20
  54572.088     3.248E-20
  54572.175     3.515E-20
  54572.256     3.668E-20
  54572.348     3.757E-20
  54572.435     3.814E-20
  54572.521     3.811E-20
  54572.608     3.727E-20
  54572.695     3.577E-20
  54572.776     3.414E-20
  54572.862     3.376E-20
  54572.949     3.465E-20
  54573.041     3.507E-20
  54573.122     3.424E-20
  54573.209     3.335E-20
  54573.295     3.318E-20
  54573.387     3.298E-20
  54573.468     3.191E-20
  54573.555     3.050E-20
  54573.642     2.999E-20
  54573.734     2.988E-20
  54573.815     2.864E-20
  54573.901     2.654E-20
  54573.988     2.413E-20
  54574.075     2.156E-20
  54574.154     1.971E-20
  54574.248     1.874E-20
  54574.334     1.767E-20
  54574.414     1.641E-20
  54574.508     1.524E-20
  54574.587     1.378E-20
  54574.673     1.214E-20
  54574.760     1.093E-20
  54574.847     1.019E-20
  54574.933     9.591E-21
  54575.020     9.024E-21
  54575.106     8.218E-21
  54575.193     7.282E-21
  54575.279     6.770E-21
  54575.366     6.487E-21
  54575.453     6.100E-21
  54575.539     5.815E-21
  54575.626     6.170E-21
  54575.712     6.752E-21
  54575.799     6.658E-21
  54575.886     6.356E-21
  54575.972     6.315E-21
  54576.059     6.186E-21
  54576.145     5.783E-21
  54576.232     5.046E-21
  54576.318     4.145E-21
  54576.405     3.747E-21
  54576.492     3.801E-21
  54576.578     3.931E-21
  54576.665     4.302E-21
  54576.751     4.704E-21
  54576.838     4.657E-21
  54576.925     4.063E-21
  54577.011     3.551E-21
  54577.098     3.474E-21
  54577.184     3.445E-21
  54577.271     3.122E-21
  54577.357     2.884E-21
  54577.444     3.094E-21
  54577.531     3.450E-21
  54577.617     3.687E-21
  54577.704     4.126E-21
  54577.790     4.490E-21
  54577.877     4.382E-21
  54577.964     3.996E-21
  54578.050     3.732E-21
  54578.137     3.465E-21
  54578.223     3.209E-21
  54578.310     3.543E-21
  54578.396     4.311E-21
  54578.483     4.488E-21
  54578.570     3.929E-21
  54578.656     3.354E-21
  54578.743     3.216E-21
  54578.829     3.467E-21
  54578.916     3.762E-21
  54579.003     3.675E-21
  54579.089     3.300E-21
  54579.176     3.297E-21
  54579.262     3.577E-21
  54579.349     3.464E-21
  54579.435     2.934E-21
  54579.522     2.745E-21
  54579.609     3.058E-21
  54579.695     3.276E-21
  54579.782     3.178E-21
  54579.868     2.982E-21
  54579.955     2.889E-21
  54580.042     2.991E-21
  54580.128     3.326E-21
  54580.215     3.737E-21
  54580.301     3.914E-21
  54580.388     3.817E-21
  54580.474     3.713E-21
  54580.561     3.712E-21
  54580.648     3.804E-21
  54580.734     3.911E-21
  54580.821     3.979E-21
  54580.907     3.965E-21
  54580.994     3.919E-21
  54581.081     3.798E-21
  54581.167     3.511E-21
  54581.254     3.112E-21
  54581.340     2.852E-21
  54581.427     2.877E-21
  54581.513     3.095E-21
  54581.600     3.443E-21
  54581.687     3.928E-21
  54581.773     4.228E-21
  54581.860     4.120E-21
  54581.946     4.080E-21
  54582.033     4.210E-21
  54582.119     4.278E-21
  54582.206     4.477E-21
  54582.293     4.969E-21
  54582.379     5.367E-21
  54582.466     5.493E-21
  54582.552     5.520E-21
  54582.639     5.685E-21
  54582.726     5.793E-21
  54582.812     5.758E-21
  54582.899     5.805E-21
  54582.985     6.023E-21
  54583.072     6.194E-21
  54583.158     5.885E-21
  54583.245     5.215E-21
  54583.332     4.896E-21
  54583.418     5.070E-21
  54583.505     5.467E-21
  54583.591     5.678E-21
  54583.678     5.337E-21
  54583.764     4.915E-21
  54583.851     5.158E-21
  54583.938     5.742E-21
  54584.024     5.964E-21
  54584.111     6.049E-21
  54584.197     6.693E-21
  54584.284     7.268E-21
  54584.371     6.771E-21
  54584.457     6.047E-21
  54584.544     6.322E-21
  54584.630     7.418E-21
  54584.717     8.353E-21
  54584.803     8.742E-21
  54584.890     8.724E-21
  54584.977     8.954E-21
  54585.063     9.408E-21
  54585.150     9.326E-21
  54585.236     8.849E-21
  54585.323     8.919E-21
  54585.409     9.642E-21
  54585.496     1.027E-20
  54585.583     1.064E-20
  54585.669     1.123E-20
  54585.756     1.214E-20
  54585.842     1.318E-20
  54585.929     1.382E-20
  54586.015     1.406E-20
  54586.102     1.459E-20
  54586.189     1.550E-20
  54586.275     1.665E-20
  54586.362     1.811E-20
  54586.456     1.964E-20
  54586.542     2.114E-20
  54586.629     2.306E-20
  54586.715     2.546E-20
  54586.802     2.746E-20
  54586.889     2.911E-20
  54586.975     3.161E-20
  54587.067     3.596E-20
  54587.154     4.114E-20
  54587.240     4.562E-20
  54587.327     5.068E-20
  54587.413     5.806E-20
  54587.500     6.759E-20
  54587.599     7.972E-20
  54587.686     9.492E-20
  54587.773     1.135E-19
  54587.844     1.356E-19
  54587.946     1.613E-19
  54588.015     1.931E-19
  54588.102     2.295E-19
  54588.181     2.666E-19
  54588.267     3.015E-19
  54588.354     3.327E-19
  54588.440     3.539E-19
  54588.527     3.600E-19
  54588.614     3.550E-19
  54588.700     3.429E-19
  54588.787     3.235E-19
  54588.873     2.991E-19
  54588.960     2.726E-19
  54589.054     2.446E-19
  54589.141     2.176E-19
  54589.227     1.925E-19
  54589.314     1.669E-19
  54589.417     1.409E-19
  54589.504     1.202E-19
  54589.591     1.049E-19
  54589.677     9.310E-20
  54589.764     8.449E-20
  54589.850     7.825E-20
  54589.937     7.215E-20
  54590.023     6.530E-20
  54590.097     5.913E-20
  54590.184     5.480E-20
  54590.270     5.180E-20
  54590.357     4.999E-20
  54590.444     4.972E-20
  54590.530     5.086E-20
  54590.617     5.235E-20
  54590.703     5.438E-20
  54590.790     5.855E-20
  54590.889     6.455E-20
  54590.976     7.136E-20
  54591.056     7.944E-20
  54591.149     8.913E-20
  54591.235     1.011E-19
  54591.322     1.169E-19
  54591.414     1.374E-19
  54591.478     1.605E-19
  54591.565     1.838E-19
  54591.651     2.066E-19
  54591.738     2.315E-19
  54591.817     2.585E-19
  54591.903     2.811E-19
  54591.990     2.894E-19
  54592.077     2.800E-19
  54592.163     2.581E-19
  54592.257     2.370E-19
  54592.344     2.233E-19
  54592.430     2.088E-19
  54592.517     1.842E-19
  54592.603     1.545E-19
  54592.707     1.290E-19
  54592.778     1.097E-19
  54592.880     9.192E-20
  54592.960     7.560E-20
  54593.041     6.366E-20
  54593.127     5.561E-20
  54593.214     4.915E-20
  54593.300     4.378E-20
  54593.387     3.988E-20
  54593.473     3.654E-20
  54593.555     3.305E-20
  54593.641     3.015E-20
  54593.728     2.863E-20
  54593.814     2.792E-20
  54593.901     2.717E-20
  54593.993     2.585E-20
  54594.074     2.357E-20
  54594.161     2.116E-20
  54594.247     1.955E-20
  54594.334     1.833E-20
  54594.420     1.705E-20
  54594.500     1.593E-20
  54594.593     1.492E-20
  54594.673     1.364E-20
  54594.759     1.216E-20
  54594.846     1.092E-20
  54594.932     1.038E-20
  54595.019     1.050E-20
  54595.106     1.086E-20
  54595.192     1.068E-20
  54595.279     9.847E-21
  54595.365     8.721E-21
  54595.452     7.882E-21
  54595.538     7.718E-21
  54595.625     7.738E-21
  54595.711     7.360E-21
  54595.798     7.018E-21
  54595.885     7.069E-21
  54595.971     7.147E-21
  54596.058     6.770E-21
  54596.144     6.195E-21
  54596.231     6.028E-21
  54596.317     6.385E-21
  54596.404     6.922E-21
  54596.491     6.992E-21
  54596.577     6.342E-21
  54596.664     5.575E-21
  54596.750     5.246E-21
  54596.837     5.279E-21
  54596.923     5.526E-21
  54597.010     5.951E-21
  54597.097     6.530E-21
  54597.183     7.054E-21
  54597.270     7.484E-21
  54597.356     7.674E-21
  54597.443     7.565E-21
  54597.529     7.467E-21
  54597.616     7.536E-21
  54597.703     7.421E-21
  54597.789     6.718E-21
  54597.876     5.853E-21
  54597.962     5.391E-21
  54598.049     5.447E-21
  54598.135     5.665E-21
  54598.222     5.768E-21
  54598.308     5.799E-21
  54598.395     5.769E-21
  54598.482     5.655E-21
  54598.568     5.504E-21
  54598.655     5.223E-21
  54598.741     4.876E-21
  54598.828     4.533E-21
  54598.914     4.025E-21
  54599.001     3.577E-21
  54599.088     3.442E-21
  54599.174     3.435E-21
  54599.261     3.599E-21
  54599.347     4.018E-21
  54599.434     4.657E-21
  54599.520     5.488E-21
  54599.607     6.123E-21
  54599.694     6.083E-21
  54599.780     5.599E-21
  54599.867     5.541E-21
  54599.953     6.115E-21
  54600.040     6.814E-21
  54600.126     7.204E-21
  54600.213     7.283E-21
  54600.299     7.182E-21
  54600.386     6.927E-21
  54600.473     6.773E-21
  54600.559     6.893E-21
  54600.646     6.752E-21
  54600.732     6.210E-21
  54600.819     6.045E-21
  54600.905     6.408E-21
  54600.992     6.559E-21
  54601.079     6.757E-21
  54601.165     7.033E-21
  54601.252     6.704E-21
  54601.338     6.256E-21
  54601.425     6.379E-21
  54601.511     6.744E-21
  54601.598     6.795E-21
  54601.684     6.674E-21
  54601.771     6.682E-21
  54601.858     6.785E-21
  54601.944     6.526E-21
  54602.031     5.945E-21
  54602.117     5.838E-21
  54602.204     6.189E-21
  54602.290     6.508E-21
  54602.377     6.604E-21
  54602.464     6.764E-21
  54602.550     7.203E-21
  54602.637     7.804E-21
  54602.723     8.013E-21
  54602.810     8.083E-21
  54602.896     8.476E-21
  54602.983     8.907E-21
  54603.069     8.993E-21
  54603.156     9.035E-21
  54603.243     9.641E-21
  54603.329     1.073E-20
  54603.416     1.201E-20
  54603.502     1.327E-20
  54603.589     1.426E-20
  54603.675     1.490E-20
  54603.762     1.541E-20
  54603.848     1.605E-20
  54603.935     1.723E-20
  54604.022     1.916E-20
  54604.116     2.199E-20
  54604.202     2.540E-20
  54604.294     2.865E-20
  54604.375     3.127E-20
  54604.462     3.328E-20
  54604.548     3.481E-20
  54604.640     3.655E-20
  54604.727     3.870E-20
  54604.813     4.114E-20
  54604.900     4.416E-20
  54604.987     4.780E-20
  54605.073     5.224E-20
  54605.160     5.828E-20
  54605.253     6.633E-20
  54605.346     7.614E-20
  54605.432     8.826E-20
  54605.519     1.044E-19
  54605.590     1.245E-19
  54605.676     1.465E-19
  54605.761     1.713E-19
  54605.848     2.025E-19
  54605.935     2.384E-19
  54606.014     2.723E-19
  54606.100     2.971E-19
  54606.187     3.090E-19
  54606.273     3.148E-19
  54606.360     3.169E-19
  54606.446     3.116E-19
  54606.533     2.989E-19
  54606.620     2.800E-19
  54606.706     2.586E-19
  54606.800     2.346E-19
  54606.887     2.096E-19
  54606.973     1.867E-19
  54607.060     1.660E-19
  54607.146     1.463E-19
  54607.234     1.278E-19
  54607.337     1.121E-19
  54607.423     1.008E-19
  54607.510     9.335E-20
  54607.596     8.866E-20
  54607.683     8.678E-20
  54607.769     8.894E-20
  54607.856     9.511E-20
  54607.942     1.059E-19
  54608.029     1.215E-19
  54608.116     1.404E-19
  54608.185     1.601E-19
  54608.272     1.764E-19
  54608.358     1.859E-19
  54608.445     1.887E-19
  54608.531     1.884E-19
  54608.618     1.871E-19
  54608.704     1.842E-19
  54608.791     1.788E-19
  54608.878     1.693E-19
  54608.964     1.543E-19
  54609.073     1.362E-19
  54609.154     1.184E-19
  54609.241     1.027E-19
  54609.327     8.952E-20
  54609.414     7.928E-20
  54609.500     7.015E-20
  54609.574     6.057E-20
  54609.661     5.206E-20
  54609.747     4.648E-20
  54609.834     4.278E-20
  54609.920     3.908E-20
  54610.001     3.545E-20
  54610.093     3.274E-20
  54610.175     3.068E-20
  54610.261     2.940E-20
  54610.348     2.905E-20
  54610.440     2.882E-20
  54610.521     2.783E-20
  54610.607     2.653E-20
  54610.694     2.545E-20
  54610.780     2.428E-20
  54610.867     2.270E-20
  54610.954     2.099E-20
  54611.040     1.956E-20
  54611.127     1.822E-20
  54611.206     1.662E-20
  54611.292     1.494E-20
  54611.379     1.356E-20
  54611.465     1.274E-20
  54611.552     1.221E-20
  54611.639     1.166E-20
  54611.725     1.089E-20
  54611.812     1.017E-20
  54611.898     9.622E-21
  54611.985     8.980E-21
  54612.071     8.558E-21
  54612.158     8.714E-21
  54612.244     9.081E-21
  54612.331     9.128E-21
  54612.418     8.675E-21
  54612.504     8.324E-21
  54612.591     8.297E-21
  54612.677     8.135E-21
  54612.764     7.835E-21
  54612.850     7.562E-21
  54612.937     7.233E-21
  54613.023     7.239E-21
  54613.110     7.589E-21
  54613.197     7.819E-21
  54613.283     7.822E-21
  54613.370     7.676E-21
  54613.456     7.588E-21
  54613.543     7.743E-21
  54613.629     7.863E-21
  54613.716     7.799E-21
  54613.802     7.614E-21
  54613.889     7.587E-21
  54613.975     8.065E-21
  54614.062     8.581E-21
  54614.149     8.681E-21
  54614.235     8.528E-21
  54614.322     8.883E-21
  54614.408     9.674E-21
  54614.495     1.011E-20
  54614.581     9.863E-21
  54614.668     9.531E-21
  54614.754     9.587E-21
  54614.841     1.011E-20
  54614.928     1.103E-20
  54615.014     1.214E-20
  54615.101     1.323E-20
  54615.187     1.442E-20
  54615.281     1.573E-20
  54615.368     1.680E-20
  54615.447     1.759E-20
  54615.533     1.847E-20
  54615.620     1.972E-20
  54615.714     2.169E-20
  54615.800     2.416E-20
  54615.887     2.699E-20
  54615.974     2.986E-20
  54616.060     3.221E-20
  54616.152     3.401E-20
  54616.233     3.580E-20
  54616.325     3.818E-20
  54616.412     4.128E-20
  54616.498     4.475E-20
  54616.585     4.834E-20
  54616.671     5.290E-20
  54616.758     5.975E-20
  54616.857     6.906E-20
  54616.944     7.955E-20
  54617.031     9.036E-20
  54617.117     1.027E-19
  54617.204     1.184E-19
  54617.296     1.370E-19
  54617.360     1.568E-19
  54617.446     1.789E-19
  54617.533     2.015E-19
  54617.619     2.200E-19
  54617.706     2.333E-19
  54617.785     2.413E-19
  54617.879     2.437E-19
  54617.958     2.417E-19
  54618.052     2.393E-19
  54618.139     2.372E-19
  54618.225     2.316E-19
  54618.312     2.212E-19
  54618.398     2.067E-19
  54618.485     1.919E-19
  54618.571     1.799E-19
  54618.658     1.693E-19
  54618.745     1.549E-19
  54618.833     1.356E-19
  54618.935     1.163E-19
  54619.021     1.010E-19
  54619.108     8.991E-20
  54619.194     8.061E-20
  54619.274     7.116E-20
  54619.354     6.191E-20
  54619.441     5.400E-20
  54619.527     4.812E-20
  54619.614     4.440E-20
  54619.701     4.196E-20
  54619.787     3.962E-20
  54619.874     3.703E-20
  54619.960     3.465E-20
  54620.047     3.327E-20
  54620.128     3.274E-20
  54620.214     3.261E-20
  54620.301     3.302E-20
  54620.387     3.437E-20
  54620.480     3.668E-20
  54620.566     3.969E-20
  54620.653     4.258E-20
  54620.739     4.479E-20
  54620.826     4.657E-20
  54620.912     4.842E-20
  54620.999     5.024E-20
  54621.085     5.173E-20
  54621.172     5.325E-20
  54621.258     5.590E-20
  54621.351     5.896E-20
  54621.438     5.950E-20
  54621.518     5.763E-20
  54621.611     5.636E-20
  54621.691     5.567E-20
  54621.778     5.429E-20
  54621.864     5.265E-20
  54621.951     5.211E-20
  54622.037     5.324E-20
  54622.124     5.639E-20
  54622.217     6.251E-20
  54622.310     7.129E-20
  54622.396     8.134E-20
  54622.483     9.112E-20
  54622.569     1.002E-19
  54622.656     1.086E-19
  54622.743     1.169E-19
  54622.814     1.244E-19
  54622.900     1.279E-19
  54622.987     1.245E-19
  54623.089     1.143E-19
  54623.175     1.019E-19
  54623.262     9.128E-20
  54623.348     8.211E-20
  54623.435     7.187E-20
  54623.515     6.066E-20
  54623.595     4.991E-20
  54623.682     4.143E-20
  54623.768     3.521E-20
  54623.849     2.978E-20
  54623.936     2.550E-20
  54624.015     2.279E-20
  54624.109     2.128E-20
  54624.195     2.039E-20
  54624.282     1.975E-20
  54624.369     1.931E-20
  54624.448     1.889E-20
  54624.542     1.847E-20
  54624.621     1.854E-20
  54624.715     1.920E-20
  54624.801     1.963E-20
  54624.888     1.987E-20
  54624.974     2.035E-20
  54625.061     2.081E-20
  54625.147     2.108E-20
  54625.226     2.129E-20
  54625.320     2.122E-20
  54625.400     2.076E-20
  54625.486     2.006E-20
  54625.573     1.939E-20
  54625.659     1.874E-20
  54625.746     1.754E-20
  54625.832     1.544E-20
  54625.919     1.302E-20
  54626.005     1.107E-20
  54626.092     9.987E-21
  54626.178     9.484E-21
  54626.265     9.125E-21
  54626.351     8.865E-21
  54626.438     8.584E-21
  54626.525     8.588E-21
  54626.611     9.063E-21
  54626.698     9.152E-21
  54626.784     8.421E-21
  54626.871     7.307E-21
  54626.957     6.353E-21
  54627.071     8.045E-21
  54627.158     7.749E-21
  54627.245     7.027E-21
  54627.332     6.438E-21
  54627.419     6.080E-21
  54627.505     5.721E-21
  54627.592     5.660E-21
  54627.679     5.697E-21
  54627.766     5.448E-21
  54627.853     5.114E-21
  54627.940     4.642E-21
  54628.027     4.455E-21
  54628.113     4.764E-21
  54628.200     4.879E-21
  54628.287     4.718E-21
  54628.374     4.509E-21
  54628.461     4.534E-21
  54628.548     4.897E-21
  54628.635     5.186E-21
  54628.722     5.345E-21
  54628.808     5.799E-21
  54628.895     6.359E-21
  54628.982     6.758E-21
  54629.069     7.014E-21
  54629.156     7.274E-21
  54629.243     7.827E-21
  54629.330     8.535E-21
  54629.417     9.032E-21
  54629.503     9.470E-21
  54629.590     1.021E-20
  54629.677     1.170E-20
  54629.764     1.445E-20
  54629.846     1.818E-20
  54629.933     2.178E-20
  54630.020     2.466E-20
  54630.107     2.664E-20
  54630.193     2.779E-20
  54630.280     2.868E-20
  54630.381     2.913E-20
  54630.454     2.837E-20
  54630.541     2.687E-20
  54630.628     2.515E-20
  54630.715     2.347E-20
  54630.802     2.269E-20
  54630.888     2.289E-20
  54630.975     2.372E-20
  54631.062     2.476E-20
  54631.149     2.576E-20
  54631.236     2.647E-20
  54631.323     2.669E-20
  54631.410     2.618E-20
  54631.497     2.561E-20
  54631.583     2.580E-20
  54631.684     2.600E-20
  54631.757     2.471E-20
  54631.844     2.252E-20
  54631.931     2.070E-20
  54632.018     1.964E-20
  54632.105     1.909E-20
  54632.191     1.887E-20
  54632.278     1.895E-20
  54632.365     1.871E-20
  54632.452     1.768E-20
  54632.539     1.636E-20
  54632.626     1.520E-20
  54632.718     1.389E-20
  54632.805     1.235E-20
  54632.891     1.118E-20
  54632.978     1.028E-20
  54633.065     9.520E-21
  54633.152     9.126E-21
  54633.239     8.832E-21
  54633.326     8.262E-21
  54633.413     7.490E-21
  54633.500     6.724E-21
  54633.586     6.208E-21
  54633.673     5.960E-21
  54633.760     5.827E-21
  54633.847     5.772E-21
  54633.934     5.734E-21
  54634.021     5.465E-21
  54634.133     4.013E-21
  54634.967     3.216E-21
  54635.810     2.366E-21
  54636.714     2.148E-21
  54637.053     2.151E-21
  54637.125     2.106E-21
  54637.199     2.025E-21
  54637.272     1.921E-21
  54637.345     1.816E-21
  54637.418     1.734E-21
  54637.492     1.656E-21
  54637.564     1.575E-21
  54637.637     1.530E-21
  54637.710     1.492E-21
  54637.784     1.460E-21
  54637.857     1.426E-21
  54637.930     1.397E-21
  54638.003     1.372E-21
  54638.076     1.350E-21
  54638.149     1.325E-21
  54638.222     1.307E-21
  54638.295     1.286E-21
  54638.369     1.266E-21
  54638.442     1.255E-21
  54638.515     1.242E-21
  54638.588     1.227E-21
  54638.661     1.213E-21
  54638.734     1.198E-21
  54638.807     1.185E-21
  54638.880     1.179E-21
  54638.954     1.163E-21
  54639.027     1.153E-21
  54639.099     1.141E-21
  54639.170     1.125E-21
  54639.242     1.106E-21
  54639.314     1.091E-21
  54639.386     1.081E-21
  54639.458     1.072E-21
  54639.530     1.067E-21
  54639.601     1.058E-21
  54639.673     1.058E-21
  54639.745     1.042E-21
  54639.817     1.026E-21
  54639.889     1.021E-21
  54639.961     1.020E-21
  54640.033     1.015E-21
  54640.104     1.003E-21
  54640.176     1.003E-21
  54640.248     9.971E-22
  54640.320     9.914E-22
  54640.392     9.913E-22
  54640.464     9.920E-22
  54640.536     9.954E-22
  54640.607     9.900E-22
  54640.679     9.889E-22
  54640.751     9.851E-22
  54640.823     9.843E-22
  54640.895     9.845E-22
  54640.967     9.828E-22
  54641.038     9.841E-22
  54641.110     9.870E-22
  54641.182     9.979E-22
  54641.254     9.998E-22
  54641.326     1.005E-21
  54641.398     1.007E-21
  54641.470     1.005E-21
  54641.541     1.002E-21
  54641.613     1.001E-21
  54641.685     9.964E-22
  54641.757     9.935E-22
  54641.829     9.964E-22
  54641.901     9.966E-22
  54641.973     9.967E-22
  54642.044     9.964E-22
  54642.116     9.996E-22
  54642.188     9.998E-22
  54642.260     1.002E-21
  54642.332     1.008E-21
  54642.404     1.015E-21
  54642.476     1.021E-21
  54642.547     1.026E-21
  54642.619     1.026E-21
  54642.691     1.031E-21
  54642.763     1.044E-21
  54642.835     1.046E-21
  54642.907     1.057E-21
  54642.979     1.070E-21
  54643.050     1.076E-21
  54643.122     1.086E-21
  54643.194     1.089E-21
  54643.266     1.094E-21
  54643.338     1.109E-21
  54643.410     1.112E-21
  54643.482     1.124E-21
  54643.553     1.142E-21
  54643.625     1.155E-21
  54643.697     1.173E-21
  54643.769     1.192E-21
  54643.841     1.200E-21
  54643.913     1.212E-21
  54643.985     1.232E-21
  54644.056     1.255E-21
  54644.128     1.273E-21
  54644.200     1.276E-21
  54644.272     1.292E-21
  54644.344     1.310E-21
  54644.416     1.335E-21
  54644.488     1.347E-21
  54644.559     1.365E-21
  54644.631     1.395E-21
  54644.703     1.427E-21
  54644.775     1.449E-21
  54644.847     1.462E-21
  54644.919     1.490E-21
  54644.991     1.532E-21
  54645.062     1.562E-21
  54645.134     1.586E-21
  54645.206     1.607E-21
  54645.278     1.631E-21
  54645.350     1.670E-21
  54645.422     1.711E-21
  54645.494     1.742E-21
  54645.565     1.793E-21
  54646.006     2.777E-21
  54646.618     4.476E-21
  54646.705     6.012E-21
  54646.792     7.350E-21
  54646.879     7.595E-21
  54646.966     7.563E-21
  54647.052     8.190E-21
  54647.139     9.236E-21
  54647.226     9.993E-21
  54647.313     1.017E-20
  54647.400     1.001E-20
  54647.487     9.892E-21
  54647.574     1.030E-20
  54647.661     1.155E-20
  54647.748     1.355E-20
  54647.834     1.594E-20
  54647.916     1.875E-20
  54648.003     2.219E-20
  54648.090     2.660E-20
  54648.177     3.167E-20
  54648.278     3.637E-20
  54648.365     4.020E-20
  54648.452     4.336E-20
  54648.539     4.556E-20
  54648.626     4.750E-20
  54648.713     4.925E-20
  54648.799     4.999E-20
  54648.886     5.008E-20
  54648.973     5.002E-20
  54649.060     5.016E-20
  54649.147     5.023E-20
  54649.234     4.982E-20
  54649.325     4.884E-20
  54649.408     4.806E-20
  54649.499     4.806E-20
  54649.581     4.814E-20
  54649.668     4.784E-20
  54649.755     4.692E-20
  54649.842     4.492E-20
  54649.929     4.152E-20
  54650.016     3.752E-20
  54650.103     3.430E-20
  54650.190     3.154E-20
  54650.262     2.853E-20
  54650.363     2.548E-20
  54650.436     2.247E-20
  54650.523     2.002E-20
  54650.615     1.806E-20
  54650.702     1.578E-20
  54650.788     1.322E-20
  54650.875     1.112E-20
  54650.962     9.965E-21
  54651.049     9.467E-21
  54651.136     9.008E-21
  54651.223     8.554E-21
  54651.310     8.184E-21
  54651.397     7.837E-21
  54651.484     7.139E-21
  54651.570     6.154E-21
  54651.657     5.253E-21
  54651.744     4.401E-21
  54651.831     3.647E-21
  54652.005     3.382E-21
  54652.094     3.663E-21
  54652.178     3.580E-21
  54652.257     3.180E-21
  54652.331     2.751E-21
  54652.536     2.315E-21
  54652.968     1.830E-21
  54653.040     1.785E-21
  54653.112     1.751E-21
  54653.184     1.709E-21
  54653.256     1.651E-21
  54653.327     1.599E-21
  54653.399     1.559E-21
  54653.471     1.522E-21
  54653.543     1.462E-21
  54653.615     1.433E-21
  54653.687     1.402E-21
  54653.759     1.373E-21
  54653.831     1.340E-21
  54653.903     1.294E-21
  54653.974     1.259E-21
  54654.046     1.230E-21
  54654.118     1.211E-21
  54654.190     1.197E-21
  54654.262     1.188E-21
  54654.334     1.173E-21
  54654.406     1.151E-21
  54654.478     1.138E-21
  54654.549     1.127E-21
  54654.621     1.110E-21
  54654.693     1.099E-21
  54654.765     1.084E-21
  54654.837     1.064E-21
  54654.909     1.043E-21
  54654.981     1.033E-21
  54655.053     1.021E-21
  54655.125     1.009E-21
  54655.196     1.005E-21
  54655.268     9.903E-22
  54655.340     9.749E-22
  54655.412     9.696E-22
  54655.484     9.448E-22
  54655.556     9.255E-22
  54655.628     9.135E-22
  54655.700     8.988E-22
  54655.771     8.932E-22
  54655.843     8.887E-22
  54655.915     8.738E-22
  54655.987     8.671E-22
  54656.059     8.603E-22
  54656.131     8.492E-22
  54656.203     8.435E-22
  54656.275     8.355E-22
  54656.347     8.165E-22
  54656.418     8.129E-22
  54656.490     7.989E-22
  54656.562     7.874E-22
  54656.634     7.734E-22
  54656.706     7.566E-22
  54656.778     7.471E-22
  54656.850     7.314E-22
  54656.922     7.128E-22
  54656.994     7.071E-22
  54657.065     7.025E-22
  54657.137     6.929E-22
  54657.209     6.879E-22
  54657.281     6.799E-22
  54657.353     6.735E-22
  54657.425     6.727E-22
  54657.497     6.587E-22
  54657.569     6.463E-22
  54657.641     6.440E-22
  54657.712     6.434E-22
  54657.784     6.360E-22
  54657.856     6.270E-22
  54657.928     6.196E-22
  54658.000     6.128E-22
  54658.072     6.093E-22
  54658.144     6.042E-22
  54658.216     6.045E-22
  54658.288     6.077E-22
  54658.359     6.093E-22
  54658.431     6.153E-22
  54658.503     6.230E-22
  54658.575     6.342E-22
  54658.647     6.515E-22
  54658.719     6.835E-22
  54658.791     7.253E-22
  54658.863     7.631E-22
  54658.935     8.067E-22
  54659.006     8.364E-22
  54659.078     8.499E-22
  54659.150     8.412E-22
  54659.222     8.153E-22
  54659.294     7.788E-22
  54659.366     7.425E-22
  54659.438     6.975E-22
  54659.510     6.594E-22
  54659.582     6.268E-22
  54659.654     6.005E-22
  54659.725     5.855E-22
  54659.797     5.754E-22
  54659.869     5.547E-22
  54659.941     5.458E-22
  54660.013     5.387E-22
  54660.085     5.335E-22
  54660.157     5.244E-22
  54660.229     5.177E-22
  54660.301     5.161E-22
  54660.372     5.129E-22
  54660.444     5.116E-22
  54660.516     5.079E-22
  54660.588     5.117E-22
  54660.660     5.151E-22
  54660.732     5.188E-22
  54660.804     5.251E-22
  54660.876     5.277E-22
  54660.948     5.248E-22
  54661.020     5.257E-22
  54661.091     5.230E-22
  54661.163     5.239E-22
  54661.235     5.238E-22
  54661.307     5.187E-22
  54661.379     5.211E-22
  54661.451     5.218E-22
  54661.523     5.229E-22
  54661.595     5.216E-22
  54661.667     5.209E-22
  54661.738     5.221E-22
  54661.810     5.220E-22
  54661.882     5.211E-22
  54661.954     5.154E-22
  54662.026     5.102E-22
  54662.098     4.995E-22
  54662.170     4.935E-22
  54662.242     4.885E-22
  54662.314     4.915E-22
  54662.386     4.910E-22
  54662.457     4.951E-22
  54662.529     4.977E-22
  54662.601     4.918E-22
  54662.673     4.884E-22
  54662.745     4.853E-22
  54662.817     4.897E-22
  54662.889     4.914E-22
  54662.961     4.904E-22
  54663.033     4.911E-22
  54663.105     4.921E-22
  54663.177     4.927E-22
  54663.248     4.929E-22
  54663.320     4.897E-22
  54663.392     4.910E-22
  54663.464     4.955E-22
  54663.536     4.964E-22
  54663.608     4.930E-22
  54663.680     4.947E-22
  54663.752     4.976E-22
  54663.824     4.988E-22
  54663.896     5.052E-22
  54663.967     5.056E-22
  54664.039     5.067E-22
  54664.111     5.029E-22
  54664.183     5.026E-22
  54664.255     5.068E-22
  54664.327     5.077E-22
  54664.399     5.109E-22
  54664.471     5.102E-22
  54664.543     5.129E-22
  54664.615     5.238E-22
  54664.686     5.344E-22
  54664.758     5.440E-22
  54664.830     5.530E-22
  54664.902     5.591E-22
  54664.974     5.706E-22
  54665.046     5.770E-22
  54665.118     5.920E-22
  54665.190     6.044E-22
  54665.262     6.121E-22
  54665.334     6.215E-22
  54665.406     6.263E-22
  54665.477     6.369E-22
  54665.549     6.552E-22
  54665.621     6.695E-22
  54665.693     6.911E-22
  54665.765     7.153E-22
  54665.837     7.367E-22
  54665.909     7.607E-22
  54665.981     7.943E-22
  54666.053     8.272E-22
  54666.125     8.670E-22
  54666.197     9.187E-22
  54666.268     9.777E-22
  54666.340     1.044E-21
  54666.484     1.212E-21
  54666.848     1.973E-21
  54666.930     2.295E-21
  54667.017     2.808E-21
  54667.125     3.810E-21
  54667.211     4.808E-21
  54667.297     4.566E-21
  54667.384     3.649E-21
  54667.471     3.165E-21
  54667.558     3.517E-21
  54667.645     3.958E-21
  54667.732     4.091E-21
  54667.819     4.080E-21
  54667.906     3.625E-21
  54667.993     2.917E-21
  54668.080     2.657E-21
  54668.166     3.263E-21
  54668.253     4.077E-21
  54668.340     4.647E-21
  54668.427     5.202E-21
  54668.514     5.745E-21
  54668.601     6.071E-21
  54668.688     5.990E-21
  54668.775     5.717E-21
  54668.862     5.922E-21
  54668.949     6.214E-21
  54669.035     5.962E-21
  54669.122     5.585E-21
  54669.209     5.237E-21
  54669.296     4.611E-21
  54669.383     4.029E-21
  54669.470     3.791E-21
  54669.557     3.941E-21
  54669.644     4.486E-21
  54669.731     5.048E-21
  54669.817     5.094E-21
  54669.904     4.622E-21
  54669.991     4.135E-21
  54670.078     3.960E-21
  54670.165     3.837E-21
  54670.252     3.624E-21
  54670.339     3.477E-21
  54670.426     3.524E-21
  54670.513     3.720E-21
  54670.600     3.873E-21
  54670.686     4.020E-21
  54670.773     4.429E-21
  54670.860     4.771E-21
  54670.947     4.681E-21
  54671.034     4.312E-21
  54671.121     4.046E-21
  54671.208     4.012E-21
  54671.295     4.086E-21
  54671.382     4.116E-21
  54671.469     4.220E-21
  54671.555     4.595E-21
  54671.642     5.066E-21
  54671.729     4.914E-21
  54671.816     4.229E-21
  54671.903     3.640E-21
  54671.990     3.404E-21
  54672.077     3.481E-21
  54672.164     3.499E-21
  54672.248     3.314E-21
  54672.328     3.120E-21
  54672.437     2.971E-21
  54672.519     2.792E-21
  54672.597     2.570E-21
  54672.673     2.206E-21
  54672.744     1.731E-21
  54672.813     1.284E-21
  54672.885     1.119E-21
  54672.957     9.873E-22
  54673.029     8.839E-22
  54673.101     8.081E-22
  54673.173     7.460E-22
  54673.244     6.955E-22
  54673.316     6.574E-22
  54673.388     6.256E-22
  54673.460     5.939E-22
  54673.532     5.660E-22
  54673.604     5.474E-22
  54673.676     5.339E-22
  54673.748     5.248E-22
  54673.820     5.174E-22
  54673.892     5.117E-22
  54673.964     5.133E-22
  54674.036     5.164E-22
  54674.108     5.208E-22
  54674.179     5.212E-22
  54674.251     5.207E-22
  54674.323     5.190E-22
  54674.395     5.162E-22
  54674.467     5.069E-22
  54674.539     4.999E-22
  54674.611     5.008E-22
  54674.683     4.955E-22
  54674.755     4.891E-22
  54674.827     4.797E-22
  54674.899     4.704E-22
  54674.971     4.560E-22
  54675.043     4.399E-22
  54675.115     4.347E-22
  54675.186     4.293E-22
  54675.258     4.198E-22
  54675.330     4.146E-22
  54675.402     4.141E-22
  54675.474     4.063E-22
  54675.546     3.999E-22
  54675.618     3.956E-22
  54675.690     3.940E-22
  54675.762     3.929E-22
  54675.834     4.008E-22
  54675.906     4.023E-22
  54675.978     4.062E-22
  54676.050     4.179E-22
  54676.122     4.241E-22
  54676.194     4.300E-22
  54676.265     4.431E-22
  54676.337     4.617E-22
  54676.409     4.827E-22
  54676.481     5.089E-22
  54676.553     5.373E-22
  54676.625     5.798E-22
  54676.697     6.364E-22
  54676.769     7.096E-22
  54676.841     8.044E-22
  54676.913     9.035E-22
  54676.985     1.009E-21
  54677.057     1.089E-21
  54677.129     1.135E-21
  54677.201     1.112E-21
  54677.273     1.053E-21
  54677.344     9.700E-22
  54677.416     8.829E-22
  54677.488     8.032E-22
  54677.560     7.301E-22
  54677.632     6.624E-22
  54677.704     6.128E-22
  54677.776     5.687E-22
  54677.848     5.385E-22
  54677.920     5.205E-22
  54677.992     5.104E-22
  54678.064     5.129E-22
  54678.136     5.288E-22
  54678.208     5.632E-22
  54678.280     6.066E-22
  54678.352     6.651E-22
  54678.423     7.345E-22
  54678.495     8.131E-22
  54678.567     9.046E-22
  54678.639     9.834E-22
  54678.711     1.046E-21
  54678.783     1.063E-21
  54678.855     1.039E-21
  54678.927     9.975E-22
  54678.999     9.188E-22
  54679.071     8.360E-22
  54679.143     7.524E-22
  54679.215     6.674E-22
  54679.287     6.017E-22
  54679.359     5.399E-22
  54679.431     4.978E-22
  54679.503     4.637E-22
  54679.575     4.360E-22
  54679.646     4.271E-22
  54679.718     4.213E-22
  54679.790     4.190E-22
  54679.862     4.236E-22
  54679.934     4.369E-22
  54680.078     4.608E-22
  54680.150     4.764E-22
  54680.221     4.823E-22
  54680.293     4.806E-22
  54680.364     4.721E-22
  54680.436     4.697E-22
  54680.507     4.548E-22
  54680.579     4.296E-22
  54680.651     4.079E-22
  54680.722     3.875E-22
  54680.794     3.725E-22
  54680.864     3.658E-22
  54680.936     3.576E-22
  54681.007     3.486E-22
  54681.079     3.444E-22
  54681.150     3.435E-22
  54681.222     3.455E-22
  54681.294     3.450E-22
  54681.365     3.451E-22
  54681.437     3.458E-22
  54681.508     3.468E-22
  54681.580     3.454E-22
  54681.651     3.479E-22
  54681.723     3.484E-22
  54681.795     3.487E-22
  54681.866     3.475E-22
  54681.938     3.447E-22
  54682.009     3.397E-22
  54682.081     3.364E-22
  54682.152     3.346E-22
  54682.223     3.348E-22
  54682.294     3.343E-22
  54682.366     3.355E-22
  54682.438     3.347E-22
  54682.509     3.357E-22
  54682.581     3.357E-22
  54682.652     3.434E-22
  54682.724     3.443E-22
  54682.795     3.443E-22
  54682.867     3.416E-22
  54682.939     3.355E-22
  54683.010     3.355E-22
  54683.082     3.361E-22
  54683.153     3.468E-22
  54683.225     3.495E-22
  54683.296     3.610E-22
  54683.368     3.725E-22
  54683.439     3.812E-22
  54683.511     3.812E-22
  54683.583     3.817E-22
  54683.653     3.892E-22
  54683.725     4.038E-22
  54683.796     4.019E-22
  54683.868     4.105E-22
  54683.939     4.104E-22
  54684.011     4.150E-22
  54684.083     4.239E-22
  54684.155     4.288E-22
  54684.227     4.268E-22
  54684.299     4.351E-22
  54684.371     4.405E-22
  54684.443     4.392E-22
  54684.515     4.462E-22
  54684.587     4.557E-22
  54684.659     4.667E-22
  54684.731     4.811E-22
  54684.803     4.924E-22
  54684.875     5.100E-22
  54684.947     5.275E-22
