 16O18O;(6,0);79K;52850-3075 cm-1;3463 pts
     WNO          SIG
  52850.020    4.5686E-22
  52850.082    3.5636E-22
  52850.148    3.2669E-22
  52850.211    3.0823E-22
  52850.281    3.0028E-22
  52850.344    2.9820E-22
  52850.406    2.3928E-22
  52850.477    1.7368E-22
  52850.539    1.3905E-22
  52850.605    8.7157E-23
  52850.668    1.9889E-23
  52850.738   -1.5736E-22
  52850.801   -2.5642E-22
  52850.863   -2.4011E-22
  52850.926   -1.0443E-22
  52850.988    1.3855E-22
  52851.055    4.0423E-22
  52851.117    4.8418E-22
  52851.188    4.2935E-22
  52851.250    3.4091E-22
  52851.313    1.8440E-22
  52851.383    8.7216E-23
  52851.445    1.3011E-23
  52851.512   -9.6661E-24
  52851.574    2.2863E-23
  52851.645    6.7920E-23
  52851.707    1.2236E-22
  52851.770    9.7737E-23
  52851.832    2.4209E-23
  52851.895   -7.2507E-23
  52851.961   -3.8980E-23
  52852.023    2.1802E-23
  52852.094   -5.4435E-23
  52852.156   -9.7703E-23
  52852.219   -1.2095E-22
  52852.281   -1.1998E-22
  52852.352   -4.6299E-23
  52852.414   -5.2164E-23
  52852.480    2.4411E-23
  52852.543    1.0672E-22
  52852.613    1.5899E-22
  52852.676    1.6604E-22
  52852.738    9.7385E-23
  52852.801    1.2109E-23
  52852.863   -6.9819E-23
  52852.930   -1.4875E-22
  52852.992   -1.8132E-22
  52853.063   -1.4528E-22
  52853.125   -1.0385E-22
  52853.188   -4.3895E-23
  52853.258    9.5156E-23
  52853.320    2.3172E-22
  52853.387    2.3321E-22
  52853.449    2.6105E-22
  52853.520    1.9401E-22
  52853.582    1.1184E-24
  52853.645   -1.0451E-22
  52853.707   -9.4075E-23
  52853.770   -2.7232E-23
  52853.836    7.6756E-23
  52853.898    1.3165E-22
  52853.969    9.8674E-23
  52854.031    1.7222E-22
  52854.094    2.9677E-22
  52854.164    3.4752E-22
  52854.227    3.4775E-22
  52854.293    3.2387E-22
  52854.355    2.9433E-22
  52854.426    2.3591E-22
  52854.488    1.8716E-22
  52854.551    7.3954E-23
  52854.613   -3.6022E-23
  52854.676   -1.0983E-22
  52854.742   -1.9125E-22
  52854.805   -2.8748E-22
  52854.875   -2.2833E-22
  52854.938   -1.2551E-22
  52855.000    4.9544E-23
  52855.063    1.6300E-22
  52855.133    1.9899E-22
  52855.195    8.4401E-23
  52855.262   -6.7866E-23
  52855.324   -8.6546E-23
  52855.395   -9.5945E-23
  52855.457   -7.8395E-23
  52855.520   -5.8086E-24
  52855.582    2.7121E-23
  52855.645    8.0563E-23
  52855.711    8.1760E-23
  52855.773    9.9892E-23
  52855.844    9.2159E-23
  52855.906    6.3254E-23
  52855.969    1.0372E-22
  52856.039    7.5625E-23
  52856.102    4.6427E-23
  52856.168    9.3424E-23
  52856.230    6.3330E-23
  52856.301    1.6448E-22
  52856.363    2.4750E-22
  52856.426    2.5442E-22
  52856.488    2.3032E-22
  52856.551    1.6065E-22
  52856.617    8.7254E-23
  52856.680    7.7905E-23
  52856.750    1.2857E-22
  52856.813    2.0046E-22
  52856.875    3.1996E-22
  52856.945    5.0978E-22
  52857.008    5.8591E-22
  52857.074    5.7481E-22
  52857.137    4.2593E-22
  52857.207    2.4443E-22
  52857.270    1.1699E-22
  52857.332    1.1095E-22
  52857.395    2.6065E-22
  52857.457    3.8238E-22
  52857.523    3.7620E-22
  52857.586    2.2241E-22
  52857.656    6.4202E-23
  52857.719    1.7014E-23
  52857.781   -1.8862E-24
  52857.844    9.1959E-23
  52857.914    1.7409E-22
  52857.980    9.7780E-23
  52858.043    9.0913E-23
  52858.113    6.2023E-23
  52858.176   -1.9767E-25
  52858.238   -1.8454E-23
  52858.301   -7.8045E-24
  52858.363    1.3794E-22
  52858.430    2.4993E-22
  52858.492    3.3960E-22
  52858.563    3.6524E-22
  52858.625    3.1859E-22
  52858.688    2.2023E-22
  52858.750    4.1933E-23
  52858.820   -9.4692E-23
  52858.883   -1.2351E-22
  52858.949   -9.0585E-23
  52859.012   -5.8031E-23
  52859.082   -2.1494E-23
  52859.145    9.1506E-23
  52859.207    1.3250E-22
  52859.270    1.1463E-22
  52859.332    3.0713E-23
  52859.398    7.9354E-23
  52859.461    2.1993E-22
  52859.531    1.6231E-22
  52859.594    2.1164E-23
  52859.656    1.4527E-23
  52859.727    2.3671E-23
  52859.789    5.8905E-24
  52859.855    1.4923E-22
  52859.918    2.0567E-22
  52859.988    2.3684E-22
  52860.051    2.9980E-22
  52860.113    3.5601E-22
  52860.176    3.0661E-22
  52860.238    2.8543E-22
  52860.305    2.9319E-22
  52860.367    2.6086E-22
  52860.438    1.5401E-22
  52860.500    1.3281E-22
  52860.563    1.7387E-22
  52860.633    2.1147E-22
  52860.695    2.7239E-22
  52860.762    3.3268E-22
  52860.824    3.7785E-22
  52860.895    3.2336E-22
  52860.957    2.4334E-22
  52861.020    2.3918E-22
  52861.082    3.1515E-22
  52861.145    3.6656E-22
  52861.211    3.4072E-22
  52861.273    4.0852E-22
  52861.344    4.7208E-22
  52861.406    3.8452E-22
  52861.469    3.5478E-22
  52861.539    3.1484E-22
  52861.602    2.5406E-22
  52861.668    2.1054E-22
  52861.730    2.4309E-22
  52861.801    2.5154E-22
  52861.863    2.7624E-22
  52861.926    3.8159E-22
  52861.988    4.1866E-22
  52862.051    4.6263E-22
  52862.117    4.8723E-22
  52862.180    5.2758E-22
  52862.250    4.7557E-22
  52862.313    4.2697E-22
  52862.375    4.0123E-22
  52862.438    4.2728E-22
  52862.508    4.4599E-22
  52862.574    4.6185E-22
  52862.637    4.4903E-22
  52862.707    3.4902E-22
  52862.770    1.9408E-22
  52862.832   -1.7636E-23
  52862.895   -1.2527E-22
  52862.957   -1.1952E-22
  52863.023   -5.0037E-23
  52863.086    6.6692E-23
  52863.156    1.3164E-22
  52863.219    2.3498E-22
  52863.281    5.5864E-23
  52863.344    5.2308E-23
  52863.414    6.1435E-23
  52863.480    1.1253E-22
  52863.543    7.5064E-23
  52863.613    6.9452E-23
  52863.676    5.6293E-24
  52863.738   -3.8915E-23
  52863.801   -6.2167E-23
  52863.863   -1.2618E-22
  52863.926   -5.6722E-24
  52863.992    1.5652E-22
  52864.063    2.8214E-22
  52864.125    2.7396E-22
  52864.188    3.7559E-22
  52864.250    4.5954E-22
  52864.320    5.0378E-22
  52864.383    4.3376E-22
  52864.449    3.5329E-22
  52864.512    2.5878E-22
  52864.582    2.6108E-22
  52864.645    2.8085E-22
  52864.707    2.3805E-22
  52864.770    2.3278E-22
  52864.832    2.5729E-22
  52864.898    3.0235E-22
  52864.961    3.1938E-22
  52865.031    2.8249E-22
  52865.094    2.9424E-22
  52865.156    3.1103E-22
  52865.227    4.0677E-22
  52865.289    4.6253E-22
  52865.355    4.6815E-22
  52865.418    4.1335E-22
  52865.488    3.5082E-22
  52865.551    1.8650E-22
  52865.613    1.0764E-22
  52865.676    1.4398E-22
  52865.738    1.4406E-22
  52865.805    1.6331E-22
  52865.867    1.2248E-22
  52865.938    8.3123E-23
  52866.000    2.3418E-23
  52866.063   -5.0676E-23
  52866.133    2.7894E-24
  52866.195    1.6399E-22
  52866.262    1.8986E-22
  52866.324    1.8663E-22
  52866.395    2.2001E-22
  52866.457    2.0481E-22
  52866.520    2.8949E-22
  52866.582    3.4925E-22
  52866.645    2.8742E-22
  52866.711    1.7519E-22
  52866.773    1.3676E-22
  52866.844    1.0797E-22
  52866.906   -3.4441E-23
  52866.969    7.8233E-24
  52867.039    1.2600E-22
  52867.102    1.9771E-22
  52867.168    3.3649E-22
  52867.230    3.4849E-22
  52867.301    3.1870E-22
  52867.363    2.1691E-22
  52867.426    1.2336E-22
  52867.488    1.2872E-22
  52867.551    1.7856E-22
  52867.617    2.8703E-22
  52867.680    2.6462E-22
  52867.750    1.7020E-22
  52867.813    5.9583E-23
  52867.875   -3.3766E-23
  52867.945   -8.3557E-23
  52868.008   -8.4318E-23
  52868.074   -1.0527E-22
  52868.137   -1.3762E-22
  52868.207   -9.3978E-23
  52868.270   -1.5747E-23
  52868.332   -4.1136E-23
  52868.395   -3.8672E-23
  52868.457   -6.1053E-23
  52868.523   -9.3165E-23
  52868.586   -9.0327E-23
  52868.656   -6.4191E-23
  52868.719   -2.7801E-23
  52868.781    1.1127E-22
  52868.852    2.4885E-22
  52868.914    3.2245E-22
  52868.980    3.0182E-22
  52869.043    2.6552E-22
  52869.113    1.5524E-22
  52869.176    1.1128E-22
  52869.238    1.0422E-22
  52869.301    6.2541E-23
  52869.363    2.2153E-23
  52869.430    3.5569E-23
  52869.492   -3.2926E-23
  52869.563   -4.4130E-23
  52869.625    2.1178E-23
  52869.688    1.5881E-22
  52869.758    3.0814E-22
  52869.820    3.9231E-22
  52869.887    3.5659E-22
  52869.949    2.5856E-22
  52870.020    2.7299E-22
  52870.082    2.7567E-22
  52870.145    2.5993E-22
  52870.207    2.8787E-22
  52870.270    2.6532E-22
  52870.336    2.1664E-22
  52870.398    2.5077E-22
  52870.469    2.6418E-22
  52870.531    1.9630E-22
  52870.594    2.3949E-22
  52870.664    2.8539E-22
  52870.727    3.5073E-22
  52870.793    3.7335E-22
  52870.855    2.9006E-22
  52870.926    2.1534E-22
  52870.988    1.1359E-22
  52871.051    3.4393E-23
  52871.113   -2.0787E-23
  52871.176    6.0931E-23
  52871.242    2.4402E-22
  52871.305    2.9380E-22
  52871.375    2.0887E-22
  52871.438    1.0244E-22
  52871.500    1.2580E-22
  52871.570    1.8385E-22
  52871.633    1.7516E-22
  52871.699    1.3016E-22
  52871.762    7.0309E-23
  52871.832    5.3514E-23
  52871.895    5.9816E-23
  52871.957    1.3314E-22
  52872.020    2.9044E-23
  52872.082   -3.9635E-23
  52872.148   -5.9956E-23
  52872.211   -4.0053E-23
  52872.281    2.2607E-23
  52872.344    3.2545E-23
  52872.406    2.6151E-23
  52872.477    6.7103E-23
  52872.539    1.4758E-22
  52872.605    1.1573E-22
  52872.668    4.5916E-23
  52872.738   -7.3200E-23
  52872.801   -1.4207E-22
  52872.863   -6.7301E-23
  52872.926    1.7119E-22
  52872.988    3.7808E-22
  52873.055    4.0444E-22
  52873.117    2.9373E-22
  52873.188    1.2264E-22
  52873.250    1.5607E-23
  52873.313   -1.7956E-23
  52873.383    3.9920E-23
  52873.445    2.9327E-23
  52873.512   -1.1377E-22
  52873.574   -1.6745E-22
  52873.645   -1.6102E-22
  52873.707   -1.4304E-22
  52873.770   -1.5087E-22
  52873.832   -1.0398E-22
  52873.895    9.1627E-23
  52873.961    1.6036E-22
  52874.023    2.0222E-22
  52874.094    1.3396E-22
  52874.156    6.0462E-23
  52874.219    4.9575E-23
  52874.289    2.8798E-23
  52874.352    2.3570E-23
  52874.418    6.0584E-23
  52874.480    1.4606E-23
  52874.551   -1.7356E-23
  52874.613   -4.8610E-23
  52874.676   -3.4505E-24
  52874.738    4.9192E-23
  52874.801    5.4094E-23
  52874.867   -5.0907E-24
  52874.930   -4.4906E-23
  52875.000   -9.4823E-23
  52875.063    4.1875E-23
  52875.125    1.6726E-22
  52875.195    1.6072E-22
  52875.258    1.4890E-22
  52875.324    9.1829E-23
  52875.387    2.7000E-24
  52875.457   -1.2277E-23
  52875.520   -2.8212E-23
  52875.582   -2.7397E-23
  52875.645    6.3065E-23
  52875.707    5.6664E-23
  52875.773    3.9011E-23
  52875.836    4.3047E-23
  52875.906    3.6978E-23
  52875.969    1.3004E-23
  52876.031    2.0612E-23
  52876.102    6.1803E-23
  52876.164    2.1305E-22
  52876.230    2.7839E-22
  52876.293    1.6593E-22
  52876.363   -3.7302E-23
  52876.426   -1.1087E-22
  52876.488   -4.2612E-23
  52876.551    1.7454E-22
  52876.613    3.0802E-22
  52876.680    3.8875E-22
  52876.742    4.0460E-22
  52876.813    3.5036E-22
  52876.875    3.2934E-22
  52876.938    2.9981E-22
  52877.008    3.3020E-22
  52877.070    2.7418E-22
  52877.137    2.1113E-22
  52877.199    2.2182E-22
  52877.270    2.3440E-22
  52877.332    2.6903E-22
  52877.395    3.3979E-22
  52877.457    3.9985E-22
  52877.520    3.3420E-22
  52877.586    2.0597E-22
  52877.648    1.0168E-22
  52877.719    5.3244E-23
  52877.781   -1.0224E-23
  52877.844   -1.1342E-22
  52877.914   -1.5326E-22
  52877.977   -1.8564E-22
  52878.043   -1.3306E-22
  52878.105   -4.8231E-23
  52878.176    6.3103E-24
  52878.238    2.2308E-23
  52878.301    4.3119E-25
  52878.363    2.3387E-23
  52878.426   -4.6228E-23
  52878.492   -2.9502E-23
  52878.555    5.0815E-23
  52878.625    1.4397E-22
  52878.688    3.3269E-22
  52878.750    4.0244E-22
  52878.820    4.3009E-22
  52878.883    3.9737E-22
  52878.949    3.6213E-22
  52879.012    3.2701E-22
  52879.082    2.2088E-22
  52879.145    1.1935E-22
  52879.207    1.2164E-22
  52879.270    2.4857E-23
  52879.332    1.6583E-23
  52879.398   -9.5922E-24
  52879.469   -3.1711E-23
  52879.531    5.9444E-23
  52879.594    1.8523E-22
  52879.656    2.2197E-22
  52879.727    2.0868E-22
  52879.789    1.8253E-22
  52879.855    1.2939E-22
  52879.926    1.7503E-22
  52879.988    2.4976E-22
  52880.051    2.6007E-22
  52880.113    2.7705E-22
  52880.176    3.5213E-22
  52880.242    3.8634E-22
  52880.305    2.5044E-22
  52880.375    1.6794E-22
  52880.438    2.8658E-22
  52880.500    4.6018E-22
  52880.563    5.2339E-22
  52880.633    4.7576E-22
  52880.699    3.2932E-22
  52880.762    2.0733E-22
  52880.832    1.8592E-22
  52880.895    1.8546E-22
  52880.957    2.4768E-22
  52881.020    2.6929E-22
  52881.082    2.2581E-22
  52881.148    2.6589E-22
  52881.211    3.2481E-22
  52881.281    3.6940E-22
  52881.344    4.5267E-22
  52881.406    4.0558E-22
  52881.477    3.3074E-22
  52881.539    2.0412E-22
  52881.605    1.8797E-22
  52881.668    2.9532E-22
  52881.738    4.7901E-22
  52881.801    5.1459E-22
  52881.863    5.7810E-22
  52881.926    7.5584E-22
  52881.988    9.0344E-22
  52882.055    1.0561E-21
  52882.117    1.1085E-21
  52882.188    1.0179E-21
  52882.250    9.1968E-22
  52882.313    9.1334E-22
  52882.383    1.0215E-21
  52882.445    1.0212E-21
  52882.512    1.0479E-21
  52882.574    1.0462E-21
  52882.645    1.0385E-21
  52882.707    1.0703E-21
  52882.770    1.1408E-21
  52882.832    1.1765E-21
  52882.895    1.2334E-21
  52882.961    1.2672E-21
  52883.023    1.1768E-21
  52883.094    1.0566E-21
  52883.156    9.5434E-22
  52883.219    7.9885E-22
  52883.289    6.1002E-22
  52883.352    4.2817E-22
  52883.418    3.4487E-22
  52883.480    3.5399E-22
  52883.551    4.2996E-22
  52883.613    4.8121E-22
  52883.676    5.1503E-22
  52883.738    4.8736E-22
  52883.801    4.2861E-22
  52883.867    3.5737E-22
  52883.930    1.5589E-22
  52884.000    1.2575E-22
  52884.063    1.8793E-22
  52884.125    2.5680E-22
  52884.195    2.6159E-22
  52884.258    2.2252E-22
  52884.324    2.0281E-22
  52884.387    2.6871E-22
  52884.457    3.6646E-22
  52884.520    4.3242E-22
  52884.582    4.8100E-22
  52884.645    4.7658E-22
  52884.711    4.7275E-22
  52884.773    4.3795E-22
  52884.844    3.4805E-22
  52884.906    1.9959E-22
  52884.969    1.0036E-22
  52885.031   -6.8434E-23
  52885.102   -1.3084E-22
  52885.168   -1.1362E-22
  52885.230   -7.0108E-24
  52885.301    2.5053E-22
  52885.363    5.1702E-22
  52885.426    6.2541E-22
  52885.488    6.5757E-22
  52885.551    6.2170E-22
  52885.617    5.0426E-22
  52885.680    3.1785E-22
  52885.750    2.2992E-22
  52885.813    1.8027E-22
  52885.875    1.5032E-22
  52885.945    1.6040E-22
  52886.008    2.0287E-22
  52886.074    2.4228E-22
  52886.137    3.3925E-22
  52886.207    3.5535E-22
  52886.270    3.3835E-22
  52886.332    3.8600E-22
  52886.395    3.6911E-22
  52886.457    2.2397E-22
  52886.523    9.8047E-23
  52886.586   -2.7672E-23
  52886.656   -6.4106E-23
  52886.719    3.0611E-23
  52886.781    1.6413E-22
  52886.852    2.4735E-22
  52886.914    2.9292E-22
  52886.980    1.9115E-22
  52887.043    1.5658E-22
  52887.113    1.7075E-22
  52887.176    1.8126E-22
  52887.238    2.8218E-22
  52887.301    4.1292E-22
  52887.363    4.5565E-22
  52887.430    4.5006E-22
  52887.492    3.8070E-22
  52887.563    2.6973E-22
  52887.625    1.1865E-22
  52887.688   -8.9531E-23
  52887.758   -2.6863E-22
  52887.820   -2.9584E-22
  52887.887   -1.8205E-22
  52887.949   -1.6815E-22
  52888.020   -1.1289E-22
  52888.082   -1.2136E-23
  52888.145    6.0785E-23
  52888.207    1.9559E-22
  52888.273    3.2434E-22
  52888.336    4.0358E-22
  52888.406    4.4577E-22
  52888.469    5.1746E-22
  52888.531    4.6844E-22
  52888.594    3.5655E-22
  52888.664    2.5405E-22
  52888.730    2.3362E-22
  52888.793    2.3559E-22
  52888.863    2.3464E-22
  52888.926    1.7414E-22
  52888.988    1.2194E-22
  52889.051    1.0038E-22
  52889.113    1.6558E-22
  52889.180    2.2439E-22
  52889.242    2.2686E-22
  52889.313    1.4434E-22
  52889.375    6.5060E-23
  52889.438    1.0771E-22
  52889.508    5.8318E-23
  52889.570    2.5407E-23
  52889.637    1.6114E-22
  52889.699    2.8641E-22
  52889.770    3.8121E-22
  52889.832    4.6046E-22
  52889.895    5.0737E-22
  52889.957    4.7145E-22
  52890.020    4.1094E-22
  52890.086    3.0840E-22
  52890.148    2.7439E-22
  52890.219    3.6758E-22
  52890.281    4.0894E-22
  52890.344    3.9555E-22
  52890.414    4.0966E-22
  52890.477    4.0546E-22
  52890.543    3.7120E-22
  52890.605    2.8459E-22
  52890.676    2.8379E-22
  52890.738    3.0781E-22
  52890.801    3.6446E-22
  52890.863    3.9607E-22
  52890.926    3.2163E-22
  52890.992    2.9970E-22
  52891.063    3.7867E-22
  52891.125    4.7247E-22
  52891.188    5.8205E-22
  52891.250    5.7333E-22
  52891.320    3.5004E-22
  52891.387    1.5294E-22
  52891.449    6.7220E-23
  52891.520    8.9045E-23
  52891.582    2.1916E-22
  52891.645    3.3298E-22
  52891.707    3.9643E-22
  52891.770    3.4788E-22
  52891.836    2.0942E-22
  52891.898    2.4646E-22
  52891.969    2.9838E-22
  52892.031    3.0418E-22
  52892.094    3.2898E-22
  52892.164    3.7708E-22
  52892.227    3.7398E-22
  52892.293    2.0500E-22
  52892.355    2.5230E-22
  52892.426    2.2392E-22
  52892.488    2.0500E-22
  52892.551    1.5770E-22
  52892.613    1.8608E-22
  52892.676    2.5230E-22
  52892.742    2.6176E-22
  52892.805    2.2392E-22
  52892.875    2.7272E-22
  52892.938    1.5539E-22
  52893.000    1.1215E-22
  52893.070    2.0500E-22
  52893.133    2.3338E-22
  52893.199    2.6176E-22
  52893.262    2.5230E-22
  52893.332    2.2392E-22
  52893.395    1.6558E-22
  52893.457   -1.5449E-23
  52893.520   -5.2897E-24
  52893.582   -9.7633E-23
  52893.648    9.5223E-23
  52893.719    1.8608E-22
  52893.781    1.4824E-22
  52893.844    1.7662E-22
  52893.906    2.0500E-22
  52893.977    1.5770E-22
  52894.043    8.2000E-23
  52894.105    1.4824E-22
  52894.176    2.1699E-22
  52894.238    7.8214E-24
  52894.301   -1.3411E-23
  52894.363    4.3267E-23
  52894.426    5.4109E-23
  52894.492    1.0271E-22
  52894.555    1.8608E-22
  52894.625    1.4824E-22
  52894.688    1.1038E-22
  52894.750    8.2000E-23
  52894.820    6.3077E-24
  52894.883    8.2000E-23
  52894.949    1.2339E-22
  52895.012    5.8698E-25
  52895.082   -1.1640E-23
  52895.145    7.3708E-23
  52895.207    1.2976E-22
  52895.270    1.3117E-22
  52895.332    1.1098E-22
  52895.398    8.7140E-23
  52895.461    3.0883E-23
  52895.531   -3.1211E-24
  52895.594    1.7941E-23
  52895.656   -5.3962E-23
  52895.727   -1.6451E-22
  52895.789   -1.7640E-22
  52895.855   -1.0399E-22
  52895.918   -5.1401E-23
  52895.988    6.2078E-23
  52896.051    1.8398E-22
  52896.113    2.8231E-22
  52896.176    3.5110E-22
  52896.242    3.4352E-22
  52896.305    3.9236E-22
  52896.375    3.2926E-22
  52896.438    1.7453E-22
  52896.500    1.3085E-22
  52896.563    1.8538E-22
  52896.633    2.3468E-22
  52896.699    2.4049E-22
  52896.762    1.4439E-22
  52896.832    9.6488E-23
  52896.895    1.7248E-22
  52896.957    2.5948E-22
  52897.020    3.2129E-22
  52897.082    3.3468E-22
  52897.148    2.6638E-22
  52897.211    2.1950E-22
  52897.281    1.8047E-22
  52897.344    9.8173E-23
  52897.406    1.0358E-22
  52897.477    4.4177E-23
  52897.539   -3.0146E-23
  52897.605   -1.1682E-23
  52897.668    4.2632E-23
  52897.738    1.4045E-22
  52897.801    3.0735E-22
  52897.863    3.1629E-22
  52897.926    2.4234E-22
  52897.988    8.1742E-23
  52898.055    2.4198E-23
  52898.125   -1.0464E-23
  52898.188    1.6278E-23
  52898.250    8.4926E-23
  52898.313    1.7191E-22
  52898.383    2.7371E-22
  52898.449    2.9046E-22
  52898.512    2.3054E-22
  52898.582    1.9427E-22
  52898.645    1.4374E-22
  52898.707    1.3974E-22
  52898.770    1.4719E-22
  52898.832    1.8627E-22
  52898.898    2.2725E-22
  52898.961    3.1059E-22
  52899.031    3.4685E-22
  52899.094    3.3425E-22
  52899.156    3.8607E-22
  52899.227    4.0744E-22
  52899.289    2.8995E-22
  52899.355    2.7660E-22
  52899.418    2.0221E-22
  52899.488    1.6824E-22
  52899.551    1.1421E-22
  52899.613    1.1593E-22
  52899.676    1.2664E-22
  52899.738    1.5095E-22
  52899.805    2.6827E-22
  52899.867    4.2306E-22
  52899.938    4.7221E-22
  52900.000    4.3095E-22
  52900.063    3.8232E-22
  52900.133    2.2359E-22
  52900.199    4.4872E-23
  52900.262   -2.9861E-23
  52900.332   -1.7669E-23
  52900.395    7.3880E-23
  52900.457    1.9921E-22
  52900.520    3.2303E-22
  52900.582    4.1347E-22
  52900.648    4.2998E-22
  52900.711    4.2459E-22
  52900.781    3.8382E-22
  52900.844    4.3456E-22
  52900.906    4.6388E-22
  52900.977    4.7785E-22
  52901.039    4.2399E-22
  52901.105    4.6487E-22
  52901.168    4.9521E-22
  52901.238    4.6739E-22
  52901.301    4.3521E-22
  52901.363    3.5723E-22
  52901.426    3.4774E-22
  52901.488    4.0417E-22
  52901.555    4.0742E-22
  52901.617    4.3691E-22
  52901.688    4.6996E-22
  52901.750    4.4678E-22
  52901.813    4.6031E-22
  52901.883    5.3044E-22
  52901.949    5.8996E-22
  52902.012    7.0402E-22
  52902.082    8.5521E-22
  52902.145    9.5853E-22
  52902.207    9.6346E-22
  52902.270    9.7501E-22
  52902.332    1.1016E-21
  52902.398    1.1627E-21
  52902.461    1.1787E-21
  52902.531    1.2419E-21
  52902.594    1.4050E-21
  52902.656    1.5001E-21
  52902.727    1.5912E-21
  52902.789    1.6581E-21
  52902.855    1.6850E-21
  52902.918    1.7608E-21
  52902.988    1.9295E-21
  52903.051    1.9896E-21
  52903.113    1.9655E-21
  52903.176    1.8978E-21
  52903.238    1.7872E-21
  52903.305    1.7061E-21
  52903.367    1.7026E-21
  52903.438    1.8133E-21
  52903.500    1.8455E-21
  52903.563    1.7922E-21
  52903.633    1.7201E-21
  52903.699    1.5866E-21
  52903.762    1.4724E-21
  52903.832    1.2726E-21
  52903.895    1.0980E-21
  52903.957    9.0796E-22
  52904.020    7.9334E-22
  52904.082    7.2423E-22
  52904.148    7.1458E-22
  52904.211    7.8450E-22
  52904.281    8.0085E-22
  52904.344    7.8960E-22
  52904.406    8.1377E-22
  52904.477    7.7597E-22
  52904.539    7.2126E-22
  52904.605    7.1255E-22
  52904.668    6.4849E-22
  52904.738    6.1317E-22
  52904.801    6.5399E-22
  52904.863    7.2108E-22
  52904.926    7.1707E-22
  52904.988    5.5899E-22
  52905.055    4.1084E-22
  52905.125    3.3497E-22
  52905.188    2.5911E-22
  52905.250    2.7387E-22
  52905.313    3.4135E-22
  52905.383    3.0962E-22
  52905.449    2.2745E-22
  52905.512    1.7946E-22
  52905.582    1.3716E-22
  52905.645    1.5204E-22
  52905.707    2.0847E-22
  52905.770    1.5839E-22
  52905.832    8.3590E-23
  52905.898    1.4812E-23
  52905.961    1.0410E-22
  52906.031    2.5263E-22
  52906.094    4.4601E-22
  52906.156    5.8010E-22
  52906.227    5.5973E-22
  52906.289    5.0343E-22
  52906.355    4.6820E-22
  52906.418    4.4750E-22
  52906.488    4.2162E-22
  52906.551    4.3905E-22
  52906.613    5.4855E-22
  52906.676    5.7786E-22
  52906.742    5.4874E-22
  52906.805    4.7403E-22
  52906.875    3.8653E-22
  52906.938    3.6604E-22
  52907.000    3.9743E-22
  52907.070    4.2170E-22
  52907.133    4.2403E-22
  52907.199    4.1948E-22
  52907.262    3.6535E-22
  52907.332    3.1434E-22
  52907.395    3.1579E-22
  52907.457    3.1911E-22
  52907.520    2.4944E-22
  52907.582    2.0628E-22
  52907.648    2.1597E-22
  52907.711    2.6555E-22
  52907.781    2.8253E-22
  52907.844    2.2108E-22
  52907.906    2.1430E-22
  52907.977    1.9238E-22
  52908.039    1.1082E-22
  52908.105    7.1718E-23
  52908.176    9.8413E-23
  52908.238    1.3904E-22
  52908.301    2.0013E-22
  52908.363    3.1241E-22
  52908.426    3.8157E-22
  52908.492    4.0584E-22
  52908.555    3.6501E-22
  52908.625    2.4732E-22
  52908.688    1.8753E-22
  52908.750    1.6696E-22
  52908.820    1.6391E-22
  52908.883    9.9362E-23
  52908.949   -3.2391E-23
  52909.012   -5.8866E-23
  52909.082    4.6865E-24
  52909.145    6.2154E-23
  52909.207    1.5652E-22
  52909.270    2.0751E-22
  52909.332    1.9201E-22
  52909.398    2.2154E-22
  52909.469    2.7702E-22
  52909.531    2.8568E-22
  52909.594    3.5030E-22
  52909.656    4.1615E-22
  52909.727    3.8007E-22
  52909.793    2.9608E-22
  52909.855    1.0225E-22
  52909.926    6.1137E-24
  52909.988   -1.5230E-23
  52910.051    3.2729E-24
  52910.113    3.1898E-23
  52910.176    4.6299E-23
  52910.242    8.5639E-23
  52910.305    2.0306E-22
  52910.375    2.8799E-22
  52910.438    2.8328E-22
  52910.500    2.4332E-22
  52910.570    2.7673E-22
  52910.633    3.6545E-22
  52910.699    4.0981E-22
  52910.762    4.4409E-22
  52910.832    5.0233E-22
  52910.895    4.4606E-22
  52910.957    3.2742E-22
  52911.020    2.4367E-22
  52911.086    2.6269E-22
  52911.148    2.3457E-22
  52911.219    2.4230E-22
  52911.281    2.3488E-22
  52911.344    2.0109E-22
  52911.414    1.3168E-22
  52911.477    1.4897E-22
  52911.543    1.3928E-22
  52911.605    2.0212E-22
  52911.676    3.5158E-22
  52911.738    4.2918E-22
  52911.801    5.1039E-22
  52911.863    4.5925E-22
  52911.926    3.9178E-22
  52911.992    3.2002E-22
  52912.055    2.5998E-22
  52912.125    2.5270E-22
  52912.188    3.0080E-22
  52912.250    3.4170E-22
  52912.320    4.0345E-22
  52912.387    3.4236E-22
  52912.449    2.3169E-22
  52912.520    7.0620E-23
  52912.582   -2.4195E-23
  52912.645    9.5028E-24
  52912.707    5.0710E-23
  52912.770    6.5122E-23
  52912.836    7.9444E-23
  52912.898    1.0943E-22
  52912.969    8.7239E-23
  52913.031    3.7942E-23
  52913.094   -3.3121E-23
  52913.164    3.4050E-23
  52913.227    8.8010E-23
  52913.293    5.8803E-23
  52913.355    6.8503E-23
  52913.426    9.1093E-23
  52913.488    1.3595E-22
  52913.551    5.4547E-23
  52913.613    2.2313E-23
  52913.680    1.1310E-22
  52913.742    1.6213E-22
  52913.813    1.1671E-22
  52913.875    1.1292E-22
  52913.938    9.3261E-23
  52914.008    6.8580E-23
  52914.070    9.8836E-23
  52914.137    4.5674E-24
  52914.199   -8.6644E-23
  52914.270   -1.2788E-22
  52914.332   -5.0857E-23
  52914.395    2.9062E-23
  52914.457    7.9993E-23
  52914.520    4.6077E-23
  52914.586    2.5842E-23
  52914.648    7.7965E-23
  52914.719    1.1038E-22
  52914.781    5.3616E-23
  52914.844    2.5230E-23
  52914.914   -4.1000E-23
  52914.980    6.3077E-24
  52915.043    2.5230E-23
  52915.113   -2.2076E-23
  52915.176    3.4692E-23
  52915.238    6.8859E-23
  52915.301    6.3077E-24
  52915.363   -4.1000E-23
  52915.430   -3.1538E-24
  52915.492   -5.0462E-23
  52915.563   -1.1670E-22
  52915.625   -8.6123E-23
  52915.688   -6.0518E-23
  52915.758   -2.3084E-22
  52915.820   -2.3979E-22
  52915.887   -1.6656E-22
  52915.949   -1.0758E-22
  52916.020   -3.0302E-23
  52916.082    1.8147E-24
  52916.145    1.5064E-22
  52916.207    2.0730E-22
  52916.273    9.9660E-23
  52916.336    1.7616E-22
  52916.406    7.4339E-23
  52916.469    2.3777E-22
  52916.531    1.4824E-22
  52916.602    1.7662E-22
  52916.664    1.1038E-22
  52916.730    8.2000E-23
  52916.793    2.5230E-23
  52916.863    3.4692E-23
  52916.926    7.2538E-23
  52916.988    1.5770E-22
  52917.051    7.2538E-23
  52917.117    2.5230E-23
  52917.180    6.3077E-24
  52917.250    7.2538E-23
  52917.313    1.2930E-22
  52917.375    5.3616E-23
  52917.438    3.4692E-23
  52917.508    1.2930E-22
  52917.574    5.3616E-23
  52917.637    6.3077E-24
  52917.707   -6.9384E-23
  52917.770   -2.2076E-23
  52917.832    8.2000E-23
  52917.895    1.0092E-22
  52917.957    1.4824E-22
  52918.023    1.7346E-22
  52918.086    1.4824E-22
  52918.156    1.1038E-22
  52918.219    7.2538E-23
  52918.281    1.7346E-22
  52918.352    1.3562E-22
  52918.418    7.2538E-23
  52918.480    8.5154E-23
  52918.551    7.2538E-23
  52918.613    1.3562E-22
  52918.676    1.8608E-22
  52918.738    2.4916E-22
  52918.801    1.8608E-22
  52918.867    1.4824E-22
  52918.930    1.3562E-22
  52919.000    1.4824E-22
  52919.063    1.3562E-22
  52919.125    8.5154E-23
  52919.195    1.4824E-22
  52919.258    2.3654E-22
  52919.324    2.1130E-22
  52919.387    2.7438E-22
  52919.457    3.5008E-22
  52919.520    3.1224E-22
  52919.582    3.6055E-22
  52919.645    2.8503E-22
  52919.711    3.7530E-22
  52919.773    3.8792E-22
  52919.844    3.3187E-22
  52919.906    4.4702E-22
  52919.969    5.0565E-22
  52920.039    5.6794E-22
  52920.102    6.0255E-22
  52920.168    6.1521E-22
  52920.230    7.1707E-22
  52920.301    7.8887E-22
  52920.363    8.8269E-22
  52920.426    8.6555E-22
  52920.488    8.1606E-22
  52920.555    8.6228E-22
  52920.617    9.3734E-22
  52920.688    1.0473E-21
  52920.750    1.0989E-21
  52920.813    1.1349E-21
  52920.883    1.2246E-21
  52920.945    1.3269E-21
  52921.012    1.4518E-21
  52921.074    1.5965E-21
  52921.145    1.7290E-21
  52921.207    1.8515E-21
  52921.270    1.9904E-21
  52921.332    2.1026E-21
  52921.395    2.2615E-21
  52921.461    2.5217E-21
  52921.531    2.7778E-21
  52921.594    3.0331E-21
  52921.656    3.2429E-21
  52921.719    3.3481E-21
  52921.789    3.2816E-21
  52921.855    3.3113E-21
  52921.918    3.3440E-21
  52921.988    3.3487E-21
  52922.051    3.3146E-21
  52922.113    3.1692E-21
  52922.176    2.9952E-21
  52922.238    2.8456E-21
  52922.305    2.7173E-21
  52922.367    2.6595E-21
  52922.438    2.6197E-21
  52922.500    2.5551E-21
  52922.563    2.3743E-21
  52922.633    2.1915E-21
  52922.699    1.9786E-21
  52922.762    1.7006E-21
  52922.832    1.5374E-21
  52922.895    1.4679E-21
  52922.957    1.4689E-21
  52923.020    1.4780E-21
  52923.082    1.4624E-21
  52923.148    1.3713E-21
  52923.211    1.3054E-21
  52923.281    1.3269E-21
  52923.344    1.2102E-21
  52923.406    1.0627E-21
  52923.477    9.7643E-22
  52923.539    9.0504E-22
  52923.605    8.3579E-22
  52923.676    8.5159E-22
  52923.738    8.9865E-22
  52923.801    9.5998E-22
  52923.863    9.6364E-22
  52923.926    9.4007E-22
  52923.992    8.5043E-22
  52924.055    8.0531E-22
  52924.125    9.0612E-22
  52924.188    9.2553E-22
  52924.250    9.6041E-22
  52924.320    8.8438E-22
  52924.383    6.3908E-22
  52924.449    4.7789E-22
  52924.512    3.6008E-22
  52924.582    2.6746E-22
  52924.645    3.6479E-22
  52924.707    3.5130E-22
  52924.770    2.7100E-22
  52924.836    2.0373E-22
  52924.898    1.8276E-22
  52924.969    2.2117E-22
  52925.031    3.7526E-22
  52925.094    4.3123E-22
  52925.164    4.4881E-22
  52925.227    4.0470E-22
  52925.293    3.8680E-22
  52925.355    4.8552E-22
  52925.426    5.3060E-22
  52925.488    4.4812E-22
  52925.551    3.0490E-22
  52925.613    1.9182E-22
  52925.680    2.3232E-22
  52925.742    2.5720E-22
  52925.813    2.8971E-22
  52925.875    3.7930E-22
  52925.938    4.3957E-22
  52926.008    5.1614E-22
  52926.070    4.7601E-22
  52926.137    4.7489E-22
  52926.199    5.4784E-22
  52926.270    5.6918E-22
  52926.332    4.9373E-22
  52926.395    5.0061E-22
  52926.457    5.6366E-22
  52926.520    5.3919E-22
  52926.586    4.3927E-22
  52926.656    3.9371E-22
  52926.719    4.5430E-22
  52926.781    5.1133E-22
  52926.852    4.5646E-22
  52926.914    3.9759E-22
  52926.980    4.0357E-22
  52927.043    5.2950E-22
  52927.113    6.9326E-22
  52927.176    8.1510E-22
  52927.238    9.1476E-22
  52927.301    9.7135E-22
  52927.363    8.5662E-22
  52927.430    6.7940E-22
  52927.500    5.6592E-22
  52927.563    4.4208E-22
  52927.625    4.5098E-22
  52927.688    4.8556E-22
  52927.758    5.2596E-22
  52927.824    5.5667E-22
  52927.887    5.8427E-22
  52927.957    5.5341E-22
  52928.020    4.9883E-22
  52928.082    3.9934E-22
  52928.145    3.9935E-22
  52928.207    3.7319E-22
  52928.273    3.9873E-22
  52928.336    4.8131E-22
  52928.406    5.2712E-22
  52928.469    5.3864E-22
  52928.531    5.1646E-22
  52928.602    4.6884E-22
  52928.668    3.7454E-22
  52928.730    3.5779E-22
  52928.801    4.2704E-22
  52928.863    4.9633E-22
  52928.926    5.3969E-22
  52928.988    5.6539E-22
  52929.051    4.4848E-22
  52929.117    2.9266E-22
  52929.180    2.6110E-22
  52929.250    2.3153E-22
  52929.313    2.5043E-22
  52929.375    3.4698E-22
  52929.445    4.3692E-22
  52929.512    4.4524E-22
  52929.574    4.0719E-22
  52929.645    4.1602E-22
  52929.707    3.9425E-22
  52929.770    3.3324E-22
  52929.832    2.9848E-22
  52929.895    2.4805E-22
  52929.961    3.6724E-22
  52930.023    4.5298E-22
  52930.094    4.3712E-22
  52930.156    3.9106E-22
  52930.219    3.2553E-22
  52930.289    2.2920E-22
  52930.355    2.2831E-22
  52930.418    1.3483E-22
  52930.488    1.1552E-23
  52930.551   -5.5421E-23
  52930.613   -4.9387E-23
  52930.676    6.1700E-23
  52930.738    1.4703E-22
  52930.805    1.5449E-22
  52930.867    1.0707E-22
  52930.938    1.3318E-22
  52931.000    1.9622E-22
  52931.063    2.3070E-22
  52931.133    3.0871E-22
  52931.195    2.5395E-22
  52931.262    1.7072E-22
  52931.332    8.2113E-23
  52931.395   -2.9078E-23
  52931.457   -9.4757E-23
  52931.520   -6.1988E-23
  52931.582   -4.0346E-23
  52931.648    7.1493E-23
  52931.711    2.0739E-22
  52931.781    2.6468E-22
  52931.844    2.3827E-22
  52931.906    2.0619E-22
  52931.977    2.1708E-22
  52932.039    3.0420E-22
  52932.105    4.2554E-22
  52932.176    5.2796E-22
  52932.238    5.9201E-22
  52932.301    5.3736E-22
  52932.363    5.2188E-22
  52932.426    3.2997E-22
  52932.492    9.9711E-23
  52932.555    1.9468E-23
  52932.625    7.0043E-23
  52932.688    1.6644E-22
  52932.750    2.6492E-22
  52932.820    3.1810E-22
  52932.883    3.5584E-22
  52932.949    2.4506E-22
  52933.020    5.7575E-23
  52933.082   -9.0112E-23
  52933.145   -9.6151E-23
  52933.207   -2.0989E-23
  52933.270   -1.6699E-23
  52933.336    3.0938E-23
  52933.398    4.1229E-23
  52933.469    4.6532E-23
  52933.531    1.1898E-22
  52933.594    1.9476E-22
  52933.664    9.4836E-23
  52933.727    4.6608E-23
  52933.793   -4.9315E-23
  52933.863   -9.5676E-23
  52933.926   -5.6809E-23
  52933.988    8.4700E-23
  52934.051    2.2778E-22
  52934.113    2.9661E-22
  52934.180    2.4056E-22
  52934.242    7.3945E-24
  52934.313   -2.0754E-22
  52934.375   -2.4210E-22
  52934.438   -2.1272E-22
  52934.508   -2.3727E-22
  52934.570   -2.0149E-22
  52934.637   -1.4597E-22
  52934.707   -8.3061E-23
  52934.770   -3.2032E-23
  52934.832    8.0811E-23
  52934.895    1.3356E-22
  52934.957    4.6743E-23
  52935.023    2.0272E-23
  52935.086    1.2132E-22
  52935.156    2.0169E-22
  52935.219   -5.5210E-23
  52935.281    6.1394E-23
  52935.352    1.5644E-22
  52935.414    2.5870E-22
  52935.480    2.2473E-22
  52935.551    1.8039E-22
  52935.613    2.1195E-22
  52935.676    3.6529E-23
  52935.738    1.5943E-22
  52935.801    3.2406E-22
  52935.867    1.7662E-22
  52935.930    8.2000E-23
  52936.000    2.0500E-22
  52936.063    8.5154E-23
  52936.125    1.7346E-22
  52936.195    1.3562E-22
  52936.258    1.7346E-22
  52936.324    2.4916E-22
  52936.395    1.4824E-22
  52936.457    8.5154E-23
  52936.520    1.3562E-22
  52936.582    1.1038E-22
  52936.645    7.2538E-23
  52936.711    1.3562E-22
  52936.773    2.4916E-22
  52936.844    2.7438E-22
  52936.906    2.3654E-22
  52936.969    1.8736E-22
  52937.039    1.3211E-22
  52937.102    3.1224E-22
  52937.168    2.4916E-22
  52937.238    2.8700E-22
  52937.301    2.1130E-22
  52937.363    2.7438E-22
  52937.426    3.3746E-22
  52937.488    2.8700E-22
  52937.555    2.4916E-22
  52937.617    3.3746E-22
  52937.688    3.7530E-22
  52937.750    5.1408E-22
  52937.813    4.8884E-22
  52937.883    4.7624E-22
  52937.949    5.5192E-22
  52938.012    6.9070E-22
  52938.082    7.4116E-22
  52938.145    8.5470E-22
  52938.207    9.1776E-22
  52938.270    1.0566E-21
  52938.332    1.2336E-21
  52938.398    1.2958E-21
  52938.461    1.5032E-21
  52938.531    1.6528E-21
  52938.594    1.8881E-21
  52938.656    2.3137E-21
  52938.727    2.7350E-21
  52938.793    3.2150E-21
  52938.855    3.4667E-21
  52938.926    3.5745E-21
  52938.988    3.7845E-21
  52939.051    3.9747E-21
  52939.113    4.0601E-21
  52939.176    4.3163E-21
  52939.242    4.7954E-21
  52939.305    5.2007E-21
  52939.375    5.5154E-21
  52939.438    5.7997E-21
  52939.500    6.0122E-21
  52939.570    6.0287E-21
  52939.637    5.9851E-21
  52939.699    5.7920E-21
  52939.770    5.6437E-21
  52939.832    5.4487E-21
  52939.895    5.1640E-21
  52939.957    5.0212E-21
  52940.020    4.8588E-21
  52940.086    4.6370E-21
  52940.148    4.4754E-21
  52940.219    4.3673E-21
  52940.281    4.0794E-21
  52940.344    3.7619E-21
  52940.414    3.4347E-21
  52940.480    3.0557E-21
  52940.543    2.7973E-21
  52940.613    2.5730E-21
  52940.676    2.4127E-21
  52940.738    2.2923E-21
  52940.801    2.1680E-21
  52940.863    2.0425E-21
  52940.930    1.8312E-21
  52941.000    1.6916E-21
  52941.063    1.6042E-21
  52941.125    1.5260E-21
  52941.188    1.3931E-21
  52941.258    1.2392E-21
  52941.324    1.0800E-21
  52941.387    9.8499E-22
  52941.457    9.5498E-22
  52941.520    8.3922E-22
  52941.582    6.5463E-22
  52941.645    6.0550E-22
  52941.707    6.5841E-22
  52941.773    7.2621E-22
  52941.844    7.7773E-22
  52941.906    6.9112E-22
  52941.969    6.2891E-22
  52942.039    6.0165E-22
  52942.102    6.1402E-22
  52942.168    6.4917E-22
  52942.230    6.7256E-22
  52942.301    7.6809E-22
  52942.363    8.6352E-22
  52942.426    8.0164E-22
  52942.488    7.2539E-22
  52942.555    6.2377E-22
  52942.617    4.6559E-22
  52942.688    3.3536E-22
  52942.750    3.2023E-22
  52942.813    3.7481E-22
  52942.883    4.2965E-22
  52942.945    5.0827E-22
  52943.012    5.1428E-22
  52943.074    5.3849E-22
  52943.145    4.6841E-22
  52943.207    3.9812E-22
  52943.270    4.2153E-22
  52943.332    4.7495E-22
  52943.398    5.9886E-22
  52943.461    7.1964E-22
  52943.531    8.6410E-22
  52943.594    8.6181E-22
  52943.656    7.6522E-22
  52943.727    6.2289E-22
  52943.789    5.5100E-22
  52943.855    5.9269E-22
  52943.918    5.4658E-22
  52943.988    5.1265E-22
  52944.051    5.5391E-22
  52944.113    6.2821E-22
  52944.176    6.9629E-22
  52944.242    6.0238E-22
  52944.305    4.9992E-22
  52944.375    4.0599E-22
  52944.438    3.7739E-22
  52944.500    3.7401E-22
  52944.570    3.2133E-22
  52944.633    2.8830E-22
  52944.699    2.8927E-22
  52944.770    2.7033E-22
  52944.832    2.7489E-22
  52944.895    2.8339E-22
  52944.957    2.8160E-22
  52945.020    2.2641E-22
  52945.086    2.0877E-22
  52945.148    2.2757E-22
  52945.219    3.6791E-22
  52945.281    5.5542E-22
  52945.344    6.4254E-22
  52945.414    6.3268E-22
  52945.480    6.4264E-22
  52945.543    6.5556E-22
  52945.613    6.6637E-22
  52945.676    6.9214E-22
  52945.738    6.7125E-22
  52945.801    6.8923E-22
  52945.863    6.2281E-22
  52945.930    4.8396E-22
  52945.992    3.9798E-22
  52946.063    3.6956E-22
  52946.125    2.6418E-22
  52946.188    1.3852E-22
  52946.258    7.3449E-23
  52946.324    1.1411E-22
  52946.387    1.6493E-22
  52946.457    2.2460E-22
  52946.520    3.6320E-22
  52946.582    5.2341E-22
  52946.645    6.3114E-22
  52946.707    5.9132E-22
  52946.773    5.3497E-22
  52946.844    4.2937E-22
  52946.906    2.9531E-22
  52946.969    2.2987E-22
  52947.039    2.3050E-22
  52947.102    3.0667E-22
  52947.168    3.1235E-22
  52947.230    2.0159E-22
  52947.301    1.5643E-22
  52947.363    1.9904E-22
  52947.426    2.9667E-22
  52947.488    4.7313E-22
  52947.555    6.6147E-22
  52947.617    8.2450E-22
  52947.688    7.1551E-22
  52947.750    6.0720E-22
  52947.813    4.9335E-22
  52947.883    5.4498E-22
  52947.945    5.5625E-22
  52948.012    5.1227E-22
  52948.074    4.4334E-22
  52948.145    3.5509E-22
  52948.207    4.3993E-22
  52948.270    5.1007E-22
  52948.332    5.0696E-22
  52948.398    6.0077E-22
  52948.461    7.2171E-22
  52948.531    6.6638E-22
  52948.594    6.1791E-22
  52948.656    6.9570E-22
  52948.727    5.5021E-22
  52948.789    5.4297E-22
  52948.855    4.7429E-22
  52948.918    2.3295E-22
  52948.988   -2.1017E-22
  52949.051   -1.9490E-22
  52949.113   -2.2846E-22
  52949.176   -6.9337E-23
  52949.242    3.7783E-24
  52949.305    6.0703E-23
  52949.375   -6.5991E-23
  52949.438    1.8292E-22
  52949.500   -1.8924E-23
  52949.570    1.5770E-22
  52949.637    1.9554E-22
  52949.699    1.8907E-23
  52949.770    2.5598E-23
  52949.832    3.5317E-22
  52949.895    5.8532E-22
  52949.957    3.9930E-22
  52950.020    2.2647E-22
  52950.086    2.0771E-22
  52950.148    1.2301E-22
  52950.219    3.8891E-22
  52950.281    3.3925E-22
  52950.344    1.1258E-22
  52950.414    1.9554E-22
  52950.480    3.2170E-22
  52950.543    2.5862E-22
  52950.613    1.8292E-22
  52950.676    1.2651E-22
  52950.738    2.2494E-22
  52950.801    3.6944E-22
  52950.863    2.4607E-22
  52950.930    1.3492E-22
  52951.000    3.6214E-22
  52951.063    5.1989E-22
  52951.125    6.7236E-22
  52951.195    4.1801E-22
  52951.258    1.4928E-22
  52951.324    3.2670E-23
  52951.387    1.6303E-22
  52951.457    2.4242E-22
  52951.520    3.7523E-22
  52951.582    2.3982E-22
  52951.645    2.7880E-22
  52951.711    4.1184E-22
  52951.773    5.6463E-22
  52951.844    5.5327E-22
  52951.906    4.7454E-22
  52951.969    4.5452E-22
  52952.039    4.3939E-22
  52952.102    3.6899E-22
  52952.168    2.7265E-22
  52952.230    3.8954E-22
  52952.301    5.0004E-22
  52952.363    5.7482E-22
  52952.426    6.0995E-22
  52952.488    5.7151E-22
  52952.555    6.0054E-22
  52952.617    6.4171E-22
  52952.688    7.2935E-22
  52952.750    7.6572E-22
  52952.813    7.5387E-22
  52952.883    7.2336E-22
  52952.949    6.9668E-22
  52953.012    6.8775E-22
  52953.082    6.1330E-22
  52953.145    5.8266E-22
  52953.207    5.6212E-22
  52953.270    6.0719E-22
  52953.332    6.6555E-22
  52953.398    8.2485E-22
  52953.461    9.7486E-22
  52953.531    9.3000E-22
  52953.594    9.7171E-22
  52953.656    1.1397E-21
  52953.727    1.2185E-21
  52953.793    1.2607E-21
  52953.855    1.3057E-21
  52953.926    1.2621E-21
  52953.988    1.3713E-21
  52954.051    1.5381E-21
  52954.113    1.6181E-21
  52954.180    1.6325E-21
  52954.242    1.6594E-21
  52954.313    1.7737E-21
  52954.375    1.9382E-21
  52954.438    2.1852E-21
  52954.508    2.4685E-21
  52954.570    2.6992E-21
  52954.637    2.8395E-21
  52954.699    2.9250E-21
  52954.770    3.1861E-21
  52954.832    3.4884E-21
  52954.895    3.8372E-21
  52954.957    4.2816E-21
  52955.023    4.7648E-21
  52955.086    5.1905E-21
  52955.156    5.5563E-21
  52955.219    6.0853E-21
  52955.281    6.6672E-21
  52955.352    7.2146E-21
  52955.414    7.7243E-21
  52955.480    8.2974E-21
  52955.551    8.7580E-21
  52955.613    9.1844E-21
  52955.676    9.3966E-21
  52955.738    9.3630E-21
  52955.801    9.3400E-21
  52955.867    9.3103E-21
  52955.930    9.1832E-21
  52956.000    9.0477E-21
  52956.063    8.8196E-21
  52956.125    8.3953E-21
  52956.195    7.9764E-21
  52956.262    7.3774E-21
  52956.324    6.7876E-21
  52956.395    6.2931E-21
  52956.457    5.7876E-21
  52956.520    5.3306E-21
  52956.582    4.9633E-21
  52956.645    4.7196E-21
  52956.711    4.4304E-21
  52956.781    4.1310E-21
  52956.844    3.7931E-21
  52956.906    3.4524E-21
  52956.977    3.1923E-21
  52957.039    2.9100E-21
  52957.105    2.6662E-21
  52957.168    2.5272E-21
  52957.238    2.3988E-21
  52957.301    2.2896E-21
  52957.363    2.1130E-21
  52957.426    2.0878E-21
  52957.492    1.9616E-21
  52957.555    1.8860E-21
  52957.625    1.8356E-21
  52957.688    1.7094E-21
  52957.750    1.6842E-21
  52957.820    1.5832E-21
  52957.883    1.4824E-21
  52957.949    1.4318E-21
  52958.020    1.2804E-21
  52958.082    1.1544E-21
  52958.145    1.2300E-21
  52958.207    1.3056E-21
  52958.270    1.1544E-21
  52958.336    1.0786E-21
  52958.398    9.7770E-22
  52958.469    9.0200E-22
  52958.531    1.0684E-21
  52958.594    1.1082E-21
  52958.664    9.0200E-22
  52958.730    7.0016E-22
  52958.793    7.7584E-22
  52958.863    9.0200E-22
  52958.926    8.2630E-22
  52958.988    7.5062E-22
  52959.051    7.0016E-22
  52959.113    8.7676E-22
  52959.180    7.0016E-22
  52959.250    6.2446E-22
  52959.313    6.7492E-22
  52959.375    4.7308E-22
  52959.445    3.7216E-22
  52959.508    4.9830E-22
  52959.574    5.9374E-22
  52959.637    5.6665E-22
  52959.707    7.1568E-22
  52959.770    7.7584E-22
  52959.832    7.3484E-22
  52959.895    6.5916E-22
  52959.961    7.5376E-22
  52960.023    7.0646E-22
  52960.094    6.5916E-22
  52960.156    7.0646E-22
  52960.219    7.8216E-22
  52960.289    6.9871E-22
  52960.352    6.2912E-22
  52960.418    6.2640E-22
  52960.488    6.3044E-22
  52960.551    7.1579E-22
  52960.613    7.2986E-22
  52960.676    7.0447E-22
  52960.738    5.3149E-22
  52960.805    4.5130E-22
  52960.867    3.0310E-22
  52960.938    2.0417E-22
  52961.000    1.3372E-22
  52961.063    1.8309E-22
  52961.133    1.8313E-22
  52961.199    2.7937E-22
  52961.262    2.1984E-22
  52961.332    4.1344E-22
  52961.395    7.4356E-22
  52961.457    1.0480E-21
  52961.520    1.1157E-21
  52961.586    1.0330E-21
  52961.648    9.0719E-22
  52961.719    9.7144E-22
  52961.781    1.1734E-21
  52961.844    1.3530E-21
  52961.914    1.4489E-21
  52961.977    1.1504E-21
  52962.043    9.5552E-22
  52962.105    1.0532E-21
  52962.176    1.2273E-21
  52962.238    8.4288E-22
  52962.301    1.3469E-21
  52962.363    9.3166E-22
  52962.430    1.1618E-21
  52962.492    9.7606E-22
  52962.563    3.4521E-22
  52962.625    9.2999E-23
  52962.688    4.2474E-22
  52962.758    6.8902E-22
  52962.824    6.5570E-22
  52962.887    7.1607E-22
  52962.957    2.2503E-22
  52963.020    8.6529E-22
  52963.082    8.9936E-22
  52963.145    7.7651E-22
  52963.207    6.8913E-22
  52963.273    6.9485E-22
  52963.344    9.1705E-22
  52963.406    7.3160E-22
  52963.469    5.5027E-22
  52963.539    4.9906E-22
  52963.602    4.6297E-22
  52963.668    6.2897E-22
  52963.730    5.9321E-22
  52963.801    6.1827E-22
  52963.863    6.4502E-22
  52963.926    6.4126E-22
  52963.988    7.1090E-22
  52964.055    7.6015E-22
  52964.117    8.4470E-22
  52964.188    8.5945E-22
  52964.250    9.0235E-22
  52964.313    8.6905E-22
  52964.383    7.6768E-22
  52964.449    6.9953E-22
  52964.512    6.0910E-22
  52964.582    4.3818E-22
  52964.645    2.1796E-22
  52964.707    1.2034E-22
  52964.770    1.3167E-22
  52964.832    2.2636E-22
  52964.898    4.3406E-22
  52964.969    6.8535E-22
  52965.031    7.8051E-22
  52965.094    8.4788E-22
  52965.164    9.9381E-22
  52965.227    1.0728E-21
  52965.293    1.1015E-21
  52965.355    1.0207E-21
  52965.426    1.0212E-21
  52965.488    8.8856E-22
  52965.551    7.6557E-22
  52965.613    7.0996E-22
  52965.680    6.0273E-22
  52965.742    6.1853E-22
  52965.813    7.2539E-22
  52965.875    7.8920E-22
  52965.938    9.1655E-22
  52966.008    9.6549E-22
  52966.070    8.8110E-22
  52966.137    7.7126E-22
  52966.207    6.7312E-22
  52966.270    7.6006E-22
  52966.332    7.9211E-22
  52966.395    7.3883E-22
  52966.457    7.6661E-22
  52966.523    8.9354E-22
  52966.586    9.8614E-22
  52966.656    9.7365E-22
  52966.719    8.6563E-22
  52966.781    6.6608E-22
  52966.852    6.1708E-22
  52966.918    6.2183E-22
  52966.980    6.7262E-22
  52967.051    7.6793E-22
  52967.113    7.5201E-22
  52967.176    7.1099E-22
  52967.238    6.7419E-22
  52967.305    6.6178E-22
  52967.367    6.7063E-22
  52967.438    6.8392E-22
  52967.500    7.0969E-22
  52967.563    6.9178E-22
  52967.633    6.6770E-22
  52967.695    6.9732E-22
  52967.762    7.2361E-22
  52967.832    7.0164E-22
  52967.895    7.3195E-22
  52967.957    8.0181E-22
  52968.020    7.9567E-22
  52968.082    8.3005E-22
  52968.148    9.0182E-22
  52968.211    1.1479E-21
  52968.281    1.4553E-21
  52968.344    1.6795E-21
  52968.406    1.8475E-21
  52968.477    1.8690E-21
  52968.543    1.8280E-21
  52968.605    1.8218E-21
  52968.676    1.8997E-21
  52968.738    1.9643E-21
  52968.801    2.0695E-21
  52968.863    2.2072E-21
  52968.930    2.3440E-21
  52968.992    2.4795E-21
  52969.063    2.6189E-21
  52969.125    2.7524E-21
  52969.188    3.0097E-21
  52969.258    3.2729E-21
  52969.320    3.4072E-21
  52969.387    3.6430E-21
  52969.457    3.9988E-21
  52969.520    4.4609E-21
  52969.582    4.9080E-21
  52969.645    5.2619E-21
  52969.707    5.6358E-21
  52969.773    6.0504E-21
  52969.836    6.8142E-21
  52969.906    7.5570E-21
  52969.969    8.2478E-21
  52970.031    9.0310E-21
  52970.102    9.8175E-21
  52970.168    1.0654E-20
  52970.230    1.1772E-20
  52970.301    1.3023E-20
  52970.363    1.3749E-20
  52970.426    1.4210E-20
  52970.488    1.4502E-20
  52970.555    1.4763E-20
  52970.617    1.5067E-20
  52970.688    1.5148E-20
  52970.750    1.5024E-20
  52970.813    1.4661E-20
  52970.883    1.4119E-20
  52970.945    1.3671E-20
  52971.012    1.3574E-20
  52971.082    1.2864E-20
  52971.145    1.2074E-20
  52971.207    1.1223E-20
  52971.270    1.0377E-20
  52971.332    9.8253E-21
  52971.398    9.0808E-21
  52971.461    8.3565E-21
  52971.531    7.7151E-21
  52971.594    7.2875E-21
  52971.656    6.9097E-21
  52971.727    6.4471E-21
  52971.793    5.9606E-21
  52971.855    5.1667E-21
  52971.926    4.9184E-21
  52971.988    4.7240E-21
  52972.051    4.5157E-21
  52972.113    4.2345E-21
  52972.180    4.0041E-21
  52972.242    3.6797E-21
  52972.313    3.3267E-21
  52972.375    3.1697E-21
  52972.438    3.0309E-21
  52972.508    2.8644E-21
  52972.570    2.6929E-21
  52972.637    2.5743E-21
  52972.707    2.4695E-21
  52972.770    2.4073E-21
  52972.832    2.2600E-21
  52972.895    2.2173E-21
  52972.957    2.1820E-21
  52973.023    2.0538E-21
  52973.086    1.8715E-21
  52973.156    1.7276E-21
  52973.219    1.7197E-21
  52973.289    1.8139E-21
  52973.352    1.9132E-21
  52973.418    1.8639E-21
  52973.480    1.6934E-21
  52973.551    1.5745E-21
  52973.613    1.5773E-21
  52973.676    1.6484E-21
  52973.738    1.6664E-21
  52973.805    1.6613E-21
  52973.867    1.6677E-21
  52973.938    1.6659E-21
  52974.000    1.6967E-21
  52974.063    1.6623E-21
  52974.133    1.6071E-21
  52974.199    1.5949E-21
  52974.262    1.6370E-21
  52974.332    1.6505E-21
  52974.395    1.5052E-21
  52974.457    1.4191E-21
  52974.520    1.3258E-21
  52974.582    1.2193E-21
  52974.648    1.1861E-21
  52974.719    1.2853E-21
  52974.781    1.2387E-21
  52974.844    1.1621E-21
  52974.914    1.2345E-21
  52974.977    1.2360E-21
  52975.043    1.1235E-21
  52975.105    9.4790E-22
  52975.176    8.6675E-22
  52975.238    8.3398E-22
  52975.301    9.0190E-22
  52975.363    9.1462E-22
  52975.430    8.4268E-22
  52975.492    8.1032E-22
  52975.563    7.9920E-22
  52975.625    7.9597E-22
  52975.688    7.1921E-22
  52975.758    7.9281E-22
  52975.824    8.3684E-22
  52975.887    8.3477E-22
  52975.957    8.8544E-22
  52976.020    7.8542E-22
  52976.082    6.5214E-22
  52976.145    6.0857E-22
  52976.211    5.4990E-22
  52976.273    5.4484E-22
  52976.344    6.6681E-22
  52976.406    7.6577E-22
  52976.469    8.7599E-22
  52976.539    8.8009E-22
  52976.602    9.3092E-22
  52976.668    9.2098E-22
  52976.738    7.8500E-22
  52976.801    6.1661E-22
  52976.863    5.7557E-22
  52976.926    5.7324E-22
  52976.988    5.1866E-22
  52977.055    3.7017E-22
  52977.117    3.2596E-22
  52977.188    4.0127E-22
  52977.250    5.7687E-22
  52977.313    8.3580E-22
  52977.383    9.0632E-22
  52977.449    8.8563E-22
  52977.512    8.2662E-22
  52977.582    7.7928E-22
  52977.645    7.3359E-22
  52977.707    6.2159E-22
  52977.770    5.7567E-22
  52977.836    5.4867E-22
  52977.898    5.3244E-22
  52977.969    5.5142E-22
  52978.031    5.6126E-22
  52978.094    5.3558E-22
  52978.164    5.1986E-22
  52978.230    6.2972E-22
  52978.293    7.5145E-22
  52978.363    8.3915E-22
  52978.426    9.0640E-22
  52978.488    9.1024E-22
  52978.551    9.0682E-22
  52978.613    8.5934E-22
  52978.680    7.6370E-22
  52978.750    7.1239E-22
  52978.813    7.0477E-22
  52978.875    7.2332E-22
  52978.945    7.0803E-22
  52979.008    7.2399E-22
  52979.074    7.4827E-22
  52979.137    7.7066E-22
  52979.207    7.6983E-22
  52979.270    8.1009E-22
  52979.332    8.7643E-22
  52979.395    9.7816E-22
  52979.461    1.0134E-21
  52979.523    9.6423E-22
  52979.594    8.7522E-22
  52979.656    7.9737E-22
  52979.719    8.0924E-22
  52979.789    8.2907E-22
  52979.855    9.2073E-22
  52979.918    1.0026E-21
  52979.988    1.0939E-21
  52980.051    1.1582E-21
  52980.113    1.1480E-21
  52980.176    1.1540E-21
  52980.242    1.0693E-21
  52980.305    9.2258E-22
  52980.375    8.8879E-22
  52980.438    8.0941E-22
  52980.500    7.8515E-22
  52980.570    9.1634E-22
  52980.633    1.0160E-21
  52980.699    1.1077E-21
  52980.770    1.2055E-21
  52980.832    1.2406E-21
  52980.895    1.2847E-21
  52980.957    1.3971E-21
  52981.020    1.4384E-21
  52981.086    1.4763E-21
  52981.156    1.5643E-21
  52981.219    1.6349E-21
  52981.281    1.6865E-21
  52981.352    1.7461E-21
  52981.414    1.7341E-21
  52981.480    1.6802E-21
  52981.543    1.7693E-21
  52981.613    1.9239E-21
  52981.676    2.1527E-21
  52981.738    2.3024E-21
  52981.801    2.4198E-21
  52981.867    2.4940E-21
  52981.930    2.5103E-21
  52982.000    2.4629E-21
  52982.063    2.4695E-21
  52982.125    2.5555E-21
  52982.195    2.6429E-21
  52982.262    2.7956E-21
  52982.324    2.9365E-21
  52982.395    3.1252E-21
  52982.457    3.3984E-21
  52982.520    3.6069E-21
  52982.582    3.7762E-21
  52982.648    3.9436E-21
  52982.711    4.0309E-21
  52982.781    4.1074E-21
  52982.844    4.2561E-21
  52982.906    4.4193E-21
  52982.977    4.7373E-21
  52983.043    5.4286E-21
  52983.105    6.2143E-21
  52983.176    6.8101E-21
  52983.238    7.1950E-21
  52983.301    7.9621E-21
  52983.363    8.6876E-21
  52983.426    9.2854E-21
  52983.492    1.0017E-20
  52983.563    1.0838E-20
  52983.625    1.1845E-20
  52983.688    1.3379E-20
  52983.758    1.4732E-20
  52983.820    1.6147E-20
  52983.887    1.7690E-20
  52983.949    1.9151E-20
  52984.020    2.0389E-20
  52984.082    2.1433E-20
  52984.145    2.2280E-20
  52984.207    2.2982E-20
  52984.273    2.3296E-20
  52984.336    2.2961E-20
  52984.406    2.2327E-20
  52984.469    2.1534E-20
  52984.531    2.0578E-20
  52984.602    1.9570E-20
  52984.668    1.8491E-20
  52984.730    1.7433E-20
  52984.801    1.6324E-20
  52984.863    1.4986E-20
  52984.926    1.3811E-20
  52984.988    1.2712E-20
  52985.055    1.1655E-20
  52985.117    1.0710E-20
  52985.188    9.9279E-21
  52985.250    9.0318E-21
  52985.313    8.3730E-21
  52985.383    7.6547E-21
  52985.449    7.0118E-21
  52985.512    6.5340E-21
  52985.582    5.9891E-21
  52985.645    5.5618E-21
  52985.707    5.1354E-21
  52985.770    4.7756E-21
  52985.836    4.4946E-21
  52985.898    4.1523E-21
  52985.969    3.8687E-21
  52986.031    3.5533E-21
  52986.094    3.3879E-21
  52986.164    3.2543E-21
  52986.227    3.0846E-21
  52986.293    2.9308E-21
  52986.363    2.8503E-21
  52986.426    2.8315E-21
  52986.488    2.7927E-21
  52986.551    2.6828E-21
  52986.613    2.5075E-21
  52986.680    2.3511E-21
  52986.750    2.1948E-21
  52986.813    2.0569E-21
  52986.875    1.9653E-21
  52986.945    1.8592E-21
  52987.008    1.8234E-21
  52987.074    1.8654E-21
  52987.137    1.8036E-21
  52987.207    1.7121E-21
  52987.270    1.6878E-21
  52987.332    1.6262E-21
  52987.395    1.6053E-21
  52987.461    1.6526E-21
  52987.523    1.7033E-21
  52987.594    1.6836E-21
  52987.656    1.6387E-21
  52987.719    1.6665E-21
  52987.789    1.6803E-21
  52987.855    1.6228E-21
  52987.918    1.6672E-21
  52987.988    1.7272E-21
  52988.051    1.7309E-21
  52988.113    1.6102E-21
  52988.176    1.5516E-21
  52988.242    1.5399E-21
  52988.305    1.4942E-21
  52988.375    1.5165E-21
  52988.438    1.5291E-21
  52988.500    1.5404E-21
  52988.570    1.5611E-21
  52988.637    1.6348E-21
  52988.699    1.6903E-21
  52988.770    1.7093E-21
  52988.832    1.6485E-21
  52988.895    1.4936E-21
  52988.957    1.3541E-21
  52989.023    1.2904E-21
  52989.086    1.2196E-21
  52989.156    1.3186E-21
  52989.219    1.4183E-21
  52989.281    1.5693E-21
  52989.352    1.7325E-21
  52989.414    1.7669E-21
  52989.480    1.6103E-21
  52989.551    1.4195E-21
  52989.613    1.2338E-21
  52989.676    1.1386E-21
  52989.738    1.1196E-21
  52989.801    1.2164E-21
  52989.867    1.3240E-21
  52989.938    1.3385E-21
  52990.000    1.3403E-21
  52990.063    1.3681E-21
  52990.133    1.2980E-21
  52990.195    1.2278E-21
  52990.262    1.1775E-21
  52990.324    1.0918E-21
  52990.395    9.5475E-22
  52990.457    9.2733E-22
  52990.520    9.2727E-22
  52990.582    9.4923E-22
  52990.648    9.3703E-22
  52990.711    9.5750E-22
  52990.781    9.9014E-22
  52990.844    9.8490E-22
  52990.906    1.0260E-21
  52990.977    9.9920E-22
  52991.043    9.9885E-22
  52991.105    1.0492E-21
  52991.176    1.1327E-21
  52991.238    1.1249E-21
  52991.301    1.1005E-21
  52991.363    1.1132E-21
  52991.430    1.0895E-21
  52991.492    1.1519E-21
  52991.563    1.2437E-21
  52991.625    1.2969E-21
  52991.688    1.3426E-21
  52991.758    1.2851E-21
  52991.824    1.2363E-21
  52991.887    1.2020E-21
  52991.957    1.0749E-21
  52992.020    1.0348E-21
  52992.082    1.0375E-21
  52992.145    1.1129E-21
  52992.211    1.2687E-21
  52992.273    1.3548E-21
  52992.344    1.4476E-21
  52992.406    1.5123E-21
  52992.469    1.6101E-21
  52992.539    1.7784E-21
  52992.605    1.7622E-21
  52992.668    1.5889E-21
  52992.738    1.4438E-21
  52992.801    1.4320E-21
  52992.863    1.4561E-21
  52992.926    1.5951E-21
  52992.992    1.7381E-21
  52993.055    1.8329E-21
  52993.125    1.8556E-21
  52993.188    1.9400E-21
  52993.250    2.0897E-21
  52993.320    2.2022E-21
  52993.383    2.2858E-21
  52993.449    2.4280E-21
  52993.520    2.4827E-21
  52993.582    2.3866E-21
  52993.645    2.3660E-21
  52993.707    2.3493E-21
  52993.770    2.4315E-21
  52993.836    2.5971E-21
  52993.906    2.6711E-21
  52993.969    2.8173E-21
  52994.031    3.0310E-21
  52994.102    3.1860E-21
  52994.164    3.2879E-21
  52994.230    3.4871E-21
  52994.293    3.6728E-21
  52994.363    3.8409E-21
  52994.426    4.1055E-21
  52994.488    4.2192E-21
  52994.551    4.3762E-21
  52994.617    4.5191E-21
  52994.680    4.5776E-21
  52994.750    4.6109E-21
  52994.813    4.7847E-21
  52994.883    4.9810E-21
  52994.945    5.3128E-21
  52995.012    5.7656E-21
  52995.074    6.1864E-21
  52995.145    6.5452E-21
  52995.207    6.9459E-21
  52995.270    7.3920E-21
  52995.332    7.9883E-21
  52995.398    8.5715E-21
  52995.461    9.1886E-21
  52995.531    9.8232E-21
  52995.594    1.0603E-20
  52995.656    1.1613E-20
  52995.727    1.2807E-20
  52995.793    1.4385E-20
  52995.855    1.6535E-20
  52995.926    1.8258E-20
  52995.988    2.0156E-20
  52996.051    2.2197E-20
  52996.113    2.4180E-20
  52996.180    2.5907E-20
  52996.242    2.7602E-20
  52996.313    2.9050E-20
  52996.375    3.0206E-20
  52996.438    3.1125E-20
  52996.508    3.1723E-20
  52996.574    3.1885E-20
  52996.637    3.1354E-20
  52996.707    3.0129E-20
  52996.770    2.8957E-20
  52996.832    2.7723E-20
  52996.895    2.6204E-20
  52996.961    2.4542E-20
  52997.023    2.2838E-20
  52997.094    2.1241E-20
  52997.156    1.9642E-20
  52997.219    1.8131E-20
  52997.289    1.6751E-20
  52997.355    1.5225E-20
  52997.418    1.3894E-20
  52997.488    1.2992E-20
  52997.551    1.1959E-20
  52997.613    1.1068E-20
  52997.676    1.0302E-20
  52997.742    9.4601E-21
  52997.805    8.7556E-21
  52997.875    7.9713E-21
  52997.938    7.3483E-21
  52998.000    6.8946E-21
  52998.070    6.6514E-21
  52998.137    6.2442E-21
  52998.199    5.7758E-21
  52998.270    5.3429E-21
  52998.332    5.0092E-21
  52998.395    4.7384E-21
  52998.457    4.5051E-21
  52998.523    4.3373E-21
  52998.586    4.1803E-21
  52998.656    3.9841E-21
  52998.719    3.8818E-21
  52998.781    3.7880E-21
  52998.852    3.5846E-21
  52998.914    3.3449E-21
  52998.980    3.0997E-21
  52999.051    2.8481E-21
  52999.113    2.6832E-21
  52999.176    2.5243E-21
  52999.238    2.3877E-21
  52999.301    2.4092E-21
  52999.367    2.4736E-21
  52999.438    2.4462E-21
  52999.500    2.3272E-21
  52999.563    2.1982E-21
  52999.633    2.0515E-21
  52999.695    1.9651E-21
  52999.762    1.9869E-21
  52999.832    2.1081E-21
  52999.895    2.1810E-21
  52999.957    2.2044E-21
  53000.020    2.4283E-21
  53000.082    2.4104E-21
  53000.148    2.3650E-21
  53000.219    2.2540E-21
  53000.281    2.0926E-21
  53000.344    2.0182E-21
  53000.414    1.9465E-21
  53000.477    1.9200E-21
  53000.543    1.9886E-21
  53000.605    1.9938E-21
  53000.676    2.0263E-21
  53000.738    1.9203E-21
  53000.801    1.8344E-21
  53000.863    1.7609E-21
  53000.930    1.7667E-21
  53001.000    1.8386E-21
  53001.063    1.8973E-21
  53001.125    1.8445E-21
  53001.195    1.7628E-21
  53001.258    1.8556E-21
  53001.324    2.0570E-21
  53001.387    2.3185E-21
  53001.457    2.5082E-21
  53001.520    2.5144E-21
  53001.582    2.5715E-21
  53001.645    2.5660E-21
  53001.711    2.5179E-21
  53001.773    2.4335E-21
  53001.844    2.1548E-21
  53001.906    2.0352E-21
  53001.977    2.0182E-21
  53002.039    2.0095E-21
  53002.105    2.0442E-21
  53002.168    2.0009E-21
  53002.238    1.9678E-21
  53002.301    1.9228E-21
  53002.363    1.9897E-21
  53002.426    2.0909E-21
  53002.492    2.0793E-21
  53002.555    2.0727E-21
  53002.625    2.0321E-21
  53002.688    2.0044E-21
  53002.758    2.0056E-21
  53002.820    2.0032E-21
  53002.887    2.0041E-21
  53002.949    2.0366E-21
  53003.020    2.1497E-21
  53003.082    2.2387E-21
  53003.145    2.2597E-21
  53003.207    2.1152E-21
  53003.273    1.9063E-21
  53003.336    1.7886E-21
  53003.406    1.7831E-21
  53003.469    1.8731E-21
  53003.539    2.0004E-21
  53003.602    2.2042E-21
  53003.668    2.3462E-21
  53003.730    2.4389E-21
  53003.801    2.5012E-21
  53003.863    2.5585E-21
  53003.926    2.5008E-21
  53003.988    2.3933E-21
  53004.055    2.4091E-21
  53004.117    2.5128E-21
  53004.188    2.5763E-21
  53004.250    2.6504E-21
  53004.313    2.7764E-21
  53004.383    2.9586E-21
  53004.449    3.0009E-21
  53004.512    2.9805E-21
  53004.582    3.0928E-21
  53004.645    3.2506E-21
  53004.707    3.4357E-21
  53004.770    3.6381E-21
  53004.836    3.8172E-21
  53004.898    3.9305E-21
  53004.969    3.9888E-21
  53005.031    4.0771E-21
  53005.094    4.2711E-21
  53005.164    4.5332E-21
  53005.230    4.7816E-21
  53005.293    5.0938E-21
  53005.363    5.4761E-21
  53005.426    5.8964E-21
  53005.488    6.2584E-21
  53005.551    6.4673E-21
  53005.617    6.6756E-21
  53005.680    6.9397E-21
  53005.750    6.9404E-21
  53005.813    7.3689E-21
  53005.875    7.9248E-21
  53005.945    8.6391E-21
  53006.012    9.3205E-21
  53006.074    9.9104E-21
  53006.145    1.0695E-20
  53006.207    1.1394E-20
  53006.270    1.2283E-20
  53006.332    1.3733E-20
  53006.398    1.4968E-20
  53006.461    1.6646E-20
  53006.531    1.8249E-20
  53006.594    2.0025E-20
  53006.656    2.1964E-20
  53006.727    2.4188E-20
  53006.793    2.6520E-20
  53006.855    2.8812E-20
  53006.926    3.1413E-20
  53006.988    3.3782E-20
  53007.051    3.6270E-20
  53007.113    3.8639E-20
  53007.180    4.0848E-20
  53007.242    4.2487E-20
  53007.313    4.3299E-20
  53007.375    4.3304E-20
  53007.438    4.2761E-20
  53007.508    4.1774E-20
  53007.574    4.0397E-20
  53007.637    3.8899E-20
  53007.707    3.7018E-20
  53007.770    3.4987E-20
  53007.832    3.2938E-20
  53007.895    3.0075E-20
  53007.961    2.7729E-20
  53008.023    2.5589E-20
  53008.094    2.3508E-20
  53008.156    2.1622E-20
  53008.219    1.9839E-20
  53008.289    1.8171E-20
  53008.355    1.6837E-20
  53008.418    1.5365E-20
  53008.488    1.4153E-20
  53008.551    1.3103E-20
  53008.613    1.2017E-20
  53008.676    1.1001E-20
  53008.742    1.0212E-20
  53008.805    9.2031E-21
  53008.875    8.5421E-21
  53008.938    8.0360E-21
  53009.000    7.6039E-21
  53009.070    7.3644E-21
  53009.137    7.1485E-21
  53009.199    6.8709E-21
  53009.270    6.5242E-21
  53009.332    6.1625E-21
  53009.395    5.7230E-21
  53009.457    5.3344E-21
  53009.523    5.0824E-21
  53009.586    4.9367E-21
  53009.656    4.8407E-21
  53009.719    4.7020E-21
  53009.781    4.5560E-21
  53009.852    4.3930E-21
  53009.918    4.2345E-21
  53009.980    4.1572E-21
  53010.051    3.9632E-21
  53010.113    3.8908E-21
  53010.176    3.8369E-21
  53010.238    3.5826E-21
  53010.305    3.3168E-21
  53010.367    3.2583E-21
  53010.438    3.1006E-21
  53010.500    2.9020E-21
  53010.570    2.7930E-21
  53010.633    2.7248E-21
  53010.699    2.7202E-21
  53010.762    2.6431E-21
  53010.832    2.5692E-21
  53010.895    2.5231E-21
  53010.957    2.5415E-21
  53011.020    2.4123E-21
  53011.086    2.3292E-21
  53011.148    2.3938E-21
  53011.219    2.4215E-21
  53011.281    2.3477E-21
  53011.352    2.3200E-21
  53011.414    2.2462E-21
  53011.480    2.3292E-21
  53011.543    2.3754E-21
  53011.613    2.2923E-21
  53011.676    2.2277E-21
  53011.738    2.3292E-21
  53011.801    2.1815E-21
  53011.867    2.2738E-21
  53011.930    2.1538E-21
  53012.000    2.2277E-21
  53012.063    2.2738E-21
  53012.133    2.1538E-21
  53012.195    2.2185E-21
  53012.262    2.1538E-21
  53012.324    2.1815E-21
  53012.395    2.2738E-21
  53012.457    2.2000E-21
  53012.520    2.1723E-21
  53012.582    2.2277E-21
  53012.648    2.2923E-21
  53012.719    2.2277E-21
  53012.781    2.3292E-21
  53012.844    2.2185E-21
  53012.914    2.2923E-21
  53012.977    2.3477E-21
  53013.043    2.2092E-21
  53013.105    2.2948E-21
  53013.176    2.4413E-21
  53013.238    2.4774E-21
  53013.301    2.3642E-21
  53013.363    2.4960E-21
  53013.430    2.6405E-21
  53013.500    2.8026E-21
  53013.563    2.9483E-21
  53013.625    3.1218E-21
  53013.695    3.2273E-21
  53013.758    3.2434E-21
  53013.824    3.3264E-21
  53013.895    3.4582E-21
  53013.957    3.4786E-21
  53014.020    3.5979E-21
  53014.082    3.7258E-21
  53014.145    3.9494E-21
  53014.211    4.3413E-21
  53014.281    4.6132E-21
  53014.344    4.7672E-21
  53014.406    4.8305E-21
  53014.477    4.9236E-21
  53014.539    5.0111E-21
  53014.605    5.1801E-21
  53014.676    5.3227E-21
  53014.738    5.4321E-21
  53014.801    5.8995E-21
  53014.863    6.2952E-21
  53014.930    6.6985E-21
  53014.992    7.0195E-21
  53015.063    7.2406E-21
  53015.125    7.4352E-21
  53015.188    7.6377E-21
  53015.258    7.9342E-21
  53015.324    8.3697E-21
  53015.387    8.8849E-21
  53015.457    9.5441E-21
  53015.520    1.0173E-20
  53015.582    1.1062E-20
  53015.645    1.2310E-20
  53015.711    1.3370E-20
  53015.773    1.4521E-20
  53015.844    1.5717E-20
  53015.906    1.7238E-20
  53015.969    1.8811E-20
  53016.039    2.0662E-20
  53016.105    2.2566E-20
  53016.168    2.4730E-20
  53016.238    2.7475E-20
  53016.301    3.0220E-20
  53016.363    3.3497E-20
  53016.426    3.6556E-20
  53016.492    3.9549E-20
  53016.555    4.2363E-20
  53016.625    4.5022E-20
  53016.688    4.7865E-20
  53016.750    4.9420E-20
  53016.820    5.0228E-20
  53016.887    5.0441E-20
  53016.949    5.0021E-20
  53017.020    4.8260E-20
  53017.082    4.5213E-20
  53017.145    4.2686E-20
  53017.207    4.0292E-20
  53017.273    3.8031E-20
  53017.336    3.5524E-20
  53017.406    3.2957E-20
  53017.469    3.0026E-20
  53017.531    2.7710E-20
  53017.602    2.5583E-20
  53017.668    2.3617E-20
  53017.730    2.1898E-20
  53017.801    2.0392E-20
  53017.863    1.8798E-20
  53017.926    1.7280E-20
  53017.988    1.5854E-20
  53018.055    1.4514E-20
  53018.117    1.3491E-20
  53018.188    1.2857E-20
  53018.250    1.1909E-20
  53018.313    1.1121E-20
  53018.383    1.0413E-20
  53018.449    9.9081E-21
  53018.512    9.4597E-21
  53018.582    9.0385E-21
  53018.645    8.5832E-21
  53018.707    8.1197E-21
  53018.770    7.7275E-21
  53018.836    7.3469E-21
  53018.898    6.9598E-21
  53018.969    6.6924E-21
  53019.031    6.3618E-21
  53019.102    6.1776E-21
  53019.164    6.0164E-21
  53019.230    5.7051E-21
  53019.293    5.4521E-21
  53019.363    5.1841E-21
  53019.426    4.8674E-21
  53019.488    4.5974E-21
  53019.551    4.5048E-21
  53019.617    4.5911E-21
  53019.688    4.7475E-21
  53019.750    4.6604E-21
  53019.813    4.4214E-21
  53019.883    4.2164E-21
  53019.945    4.0973E-21
  53020.012    4.0197E-21
  53020.082    4.0792E-21
  53020.145    4.1009E-21
  53020.207    4.0538E-21
  53020.270    3.9558E-21
  53020.332    3.8899E-21
  53020.398    3.9129E-21
  53020.469    3.9250E-21
  53020.531    3.8600E-21
  53020.594    3.7333E-21
  53020.664    3.6941E-21
  53020.727    3.6384E-21
  53020.793    3.6018E-21
  53020.863    3.6103E-21
  53020.926    3.5857E-21
  53020.988    3.6693E-21
  53021.051    3.6572E-21
  53021.117    3.6536E-21
  53021.180    3.6395E-21
  53021.250    3.7377E-21
  53021.313    3.7769E-21
  53021.375    3.7860E-21
  53021.445    3.8928E-21
  53021.512    4.0129E-21
  53021.574    4.0861E-21
  53021.645    4.1853E-21
  53021.707    4.3092E-21
  53021.770    4.3843E-21
  53021.832    4.5364E-21
  53021.898    4.6342E-21
  53021.961    4.6433E-21
  53022.031    4.6494E-21
  53022.094    4.7239E-21
  53022.156    4.7190E-21
  53022.227    4.7078E-21
  53022.293    4.7122E-21
  53022.355    4.7802E-21
  53022.426    4.9624E-21
  53022.488    5.2004E-21
  53022.551    5.5272E-21
  53022.613    5.8197E-21
  53022.680    6.0368E-21
  53022.742    6.2366E-21
  53022.813    6.4108E-21
  53022.875    6.6488E-21
  53022.945    6.9566E-21
  53023.008    7.2756E-21
  53023.074    7.6725E-21
  53023.137    8.0262E-21
  53023.207    8.4598E-21
  53023.270    8.9354E-21
  53023.332    9.4088E-21
  53023.395    9.9472E-21
  53023.461    1.0543E-20
  53023.531    1.1206E-20
  53023.594    1.1935E-20
  53023.656    1.2870E-20
  53023.727    1.3649E-20
  53023.789    1.4599E-20
  53023.855    1.6331E-20
  53023.926    1.7817E-20
  53023.988    1.9484E-20
  53024.051    2.1273E-20
  53024.113    2.3352E-20
  53024.176    2.5581E-20
  53024.242    2.8072E-20
  53024.313    3.1017E-20
  53024.375    3.4210E-20
  53024.438    3.7390E-20
  53024.508    4.0741E-20
  53024.570    4.4249E-20
  53024.637    4.8260E-20
  53024.707    5.1018E-20
  53024.770    5.3083E-20
  53024.832    5.4443E-20
  53024.895    5.5533E-20
  53024.961    5.5977E-20
  53025.023    5.5627E-20
  53025.094    5.4616E-20
  53025.156    5.2941E-20
  53025.219    5.0931E-20
  53025.289    4.8695E-20
  53025.355    4.4887E-20
  53025.418    4.1656E-20
  53025.488    3.8263E-20
  53025.551    3.5176E-20
  53025.613    3.2578E-20
  53025.676    2.9704E-20
  53025.742    2.7348E-20
  53025.805    2.5279E-20
  53025.875    2.3485E-20
  53025.938    2.1846E-20
  53026.000    2.0272E-20
  53026.070    1.8821E-20
  53026.137    1.7485E-20
  53026.199    1.6249E-20
  53026.270    1.5168E-20
  53026.332    1.4256E-20
  53026.395    1.3476E-20
  53026.457    1.2783E-20
  53026.523    1.2208E-20
  53026.586    1.1599E-20
  53026.656    1.1184E-20
  53026.719    1.0746E-20
  53026.789    1.0209E-20
  53026.852    9.7770E-21
  53026.918    9.1252E-21
  53026.980    8.7392E-21
  53027.051    8.3811E-21
  53027.113    8.1295E-21
  53027.176    7.8373E-21
  53027.238    7.5656E-21
  53027.305    7.4214E-21
  53027.375    7.2429E-21
  53027.438    7.1189E-21
  53027.500    6.9840E-21
  53027.570    6.8154E-21
  53027.633    6.6392E-21
  53027.699    6.5325E-21
  53027.770    6.3945E-21
  53027.832    6.2758E-21
  53027.895    6.1332E-21
  53027.957    6.0873E-21
  53028.023    6.0595E-21
  53028.086    5.8253E-21
  53028.156    5.5810E-21
  53028.219    5.4256E-21
  53028.281    5.2582E-21
  53028.352    5.1343E-21
  53028.418    5.1470E-21
  53028.480    5.3214E-21
  53028.551    5.4638E-21
  53028.613    5.7158E-21
  53028.676    5.9906E-21
  53028.738    6.2536E-21
  53028.805    6.4392E-21
  53028.867    6.4851E-21
  53028.938    6.5272E-21
  53029.000    6.5482E-21
  53029.063    6.5627E-21
  53029.133    6.5976E-21
  53029.199    6.6659E-21
  53029.262    6.7724E-21
  53029.332    7.0138E-21
  53029.395    7.4699E-21
  53029.457    7.9728E-21
  53029.520    8.4013E-21
  53029.586    8.7040E-21
  53029.648    8.8967E-21
  53029.719    9.0638E-21
  53029.781    9.2781E-21
  53029.852    9.6141E-21
  53029.914    1.0030E-20
  53029.980    1.0217E-20
  53030.051    1.0696E-20
  53030.113    1.1181E-20
  53030.176    1.1713E-20
  53030.238    1.2336E-20
  53030.301    1.3511E-20
  53030.367    1.4637E-20
  53030.438    1.5812E-20
  53030.500    1.6970E-20
  53030.563    1.8401E-20
  53030.633    2.0019E-20
  53030.699    2.1909E-20
  53030.762    2.3876E-20
  53030.832    2.6000E-20
  53030.895    2.8521E-20
  53030.957    3.1573E-20
  53031.020    3.4527E-20
  53031.086    3.7599E-20
  53031.148    4.0941E-20
  53031.219    4.4275E-20
  53031.281    4.8094E-20
  53031.344    5.1084E-20
  53031.414    5.3669E-20
  53031.480    5.6074E-20
  53031.543    5.7480E-20
  53031.613    5.8167E-20
  53031.676    5.7892E-20
  53031.738    5.6753E-20
  53031.801    5.4802E-20
  53031.867    5.2356E-20
  53031.930    4.9991E-20
  53032.000    4.7456E-20
  53032.063    4.3732E-20
  53032.133    4.0639E-20
  53032.195    3.7818E-20
  53032.262    3.5212E-20
  53032.324    3.2578E-20
  53032.395    2.9406E-20
  53032.457    2.7081E-20
  53032.520    2.4889E-20
  53032.582    2.2960E-20
  53032.648    2.1294E-20
  53032.719    1.9883E-20
  53032.781    1.8522E-20
  53032.844    1.7278E-20
  53032.914    1.6167E-20
  53032.977    1.5131E-20
  53033.043    1.4383E-20
  53033.113    1.3786E-20
  53033.176    1.3245E-20
  53033.238    1.2893E-20
  53033.301    1.2537E-20
  53033.367    1.2238E-20
  53033.430    1.1912E-20
  53033.500    1.1492E-20
  53033.563    1.1055E-20
  53033.625    1.0679E-20
  53033.695    1.0377E-20
  53033.762    9.9969E-21
  53033.824    9.8180E-21
  53033.895    9.6173E-21
  53033.957    9.4272E-21
  53034.020    9.2283E-21
  53034.082    9.0231E-21
  53034.148    8.9716E-21
  53034.211    8.9686E-21
  53034.281    8.9742E-21
  53034.344    8.9916E-21
  53034.414    9.1476E-21
  53034.477    9.2231E-21
  53034.543    9.2971E-21
  53034.605    9.4051E-21
  53034.676    9.5172E-21
  53034.738    9.5984E-21
  53034.801    9.7791E-21
  53034.863    9.9496E-21
  53034.930    1.0213E-20
  53035.000    1.0604E-20
  53035.063    1.1092E-20
  53035.125    1.1449E-20
  53035.195    1.1777E-20
  53035.262    1.2062E-20
  53035.324    1.2283E-20
  53035.395    1.2505E-20
  53035.457    1.2784E-20
  53035.520    1.3254E-20
  53035.582    1.3960E-20
  53035.648    1.4699E-20
  53035.711    1.5551E-20
  53035.781    1.6377E-20
  53035.844    1.7299E-20
  53035.906    1.8187E-20
  53035.977    1.9165E-20
  53036.043    2.0524E-20
  53036.105    2.2084E-20
  53036.176    2.3643E-20
  53036.238    2.5493E-20
  53036.301    2.7623E-20
  53036.363    2.9823E-20
  53036.430    3.2755E-20
  53036.492    3.5508E-20
  53036.563    3.8432E-20
  53036.625    4.1552E-20
  53036.695    4.4493E-20
  53036.758    4.7287E-20
  53036.824    4.9809E-20
  53036.895    5.1878E-20
  53036.957    5.3347E-20
  53037.020    5.3976E-20
  53037.082    5.3765E-20
  53037.145    5.2898E-20
  53037.211    5.1592E-20
  53037.281    4.9704E-20
  53037.344    4.7503E-20
  53037.406    4.4734E-20
  53037.477    4.2228E-20
  53037.543    3.9696E-20
  53037.605    3.7103E-20
  53037.676    3.4661E-20
  53037.738    3.2143E-20
  53037.801    2.9522E-20
  53037.863    2.7590E-20
  53037.930    2.5795E-20
  53037.992    2.4212E-20
  53038.063    2.2654E-20
  53038.125    2.1212E-20
  53038.188    1.9933E-20
  53038.258    1.8887E-20
  53038.324    1.8024E-20
  53038.387    1.7461E-20
  53038.457    1.7146E-20
  53038.520    1.6999E-20
  53038.582    1.6793E-20
  53038.645    1.6654E-20
  53038.711    1.6716E-20
  53038.781    1.6760E-20
  53038.844    1.6683E-20
  53038.906    1.6558E-20
  53038.977    1.6616E-20
  53039.039    1.6493E-20
  53039.105    1.6375E-20
  53039.176    1.6293E-20
  53039.238    1.6255E-20
  53039.301    1.6239E-20
  53039.363    1.6243E-20
  53039.430    1.6199E-20
  53039.492    1.6072E-20
  53039.563    1.5719E-20
  53039.625    1.5236E-20
  53039.688    1.5233E-20
  53039.758    1.5550E-20
  53039.824    1.5941E-20
  53039.887    1.6473E-20
  53039.957    1.6860E-20
  53040.020    1.7534E-20
  53040.082    1.8353E-20
  53040.145    1.9261E-20
  53040.211    2.0246E-20
  53040.273    2.1425E-20
  53040.344    2.2902E-20
  53040.406    2.4661E-20
  53040.477    2.6461E-20
  53040.539    2.8502E-20
  53040.605    3.0676E-20
  53040.668    3.2861E-20
  53040.738    3.5581E-20
  53040.801    3.8443E-20
  53040.863    4.1091E-20
  53040.926    4.3303E-20
  53040.992    4.4752E-20
  53041.063    4.6312E-20
  53041.125    4.7133E-20
  53041.188    4.7058E-20
  53041.258    4.6643E-20
  53041.324    4.5683E-20
  53041.387    4.4290E-20
  53041.457    4.2862E-20
  53041.520    4.0995E-20
  53041.582    3.9034E-20
  53041.645    3.6996E-20
  53041.711    3.5159E-20
  53041.773    3.3327E-20
  53041.844    3.1807E-20
  53041.906    3.0476E-20
  53041.969    2.9136E-20
  53042.039    2.7917E-20
  53042.105    2.6819E-20
  53042.168    2.5775E-20
  53042.238    2.4901E-20
  53042.301    2.4303E-20
  53042.363    2.3788E-20
  53042.426    2.3476E-20
  53042.492    2.3142E-20
  53042.563    2.3025E-20
  53042.625    2.3235E-20
  53042.688    2.3498E-20
  53042.758    2.3958E-20
  53042.820    2.4627E-20
  53042.887    2.5199E-20
  53042.957    2.5904E-20
  53043.020    2.6794E-20
  53043.082    2.7920E-20
  53043.145    2.9164E-20
  53043.211    3.0502E-20
  53043.273    3.1919E-20
  53043.344    3.3341E-20
  53043.406    3.4785E-20
  53043.469    3.6172E-20
  53043.539    3.7683E-20
  53043.605    3.9616E-20
  53043.668    4.1389E-20
  53043.738    4.3607E-20
  53043.801    4.4890E-20
  53043.863    4.5320E-20
  53043.926    4.5291E-20
  53043.992    4.5053E-20
  53044.063    4.4534E-20
  53044.125    4.4156E-20
  53044.188    4.3391E-20
  53044.258    4.2531E-20
  53044.320    4.1586E-20
  53044.387    4.0206E-20
  53044.457    3.8842E-20
  53044.520    3.7645E-20
  53044.582    3.6967E-20
  53044.645    3.6729E-20
  53044.711    3.7111E-20
  53044.773    3.7529E-20
  53044.844    3.7743E-20
  53044.906    3.8384E-20
  53044.969    3.9174E-20
  53045.039    3.9655E-20
  53045.105    3.8983E-20
  53045.168    3.7977E-20
  53045.238    3.6874E-20
  53045.301    3.6067E-20
  53045.363    3.4890E-20
  53045.426    3.3425E-20
  53045.492    3.1741E-20
  53045.555    2.9776E-20
  53045.625    2.8400E-20
  53045.688    2.6648E-20
  53045.758    2.4742E-20
  53045.820    2.2744E-20
  53045.887    2.0857E-20
  53045.957    1.9162E-20
  53046.020    1.7363E-20
  53046.082    1.5854E-20
  53046.145    1.4564E-20
  53046.211    1.3499E-20
  53046.273    1.2650E-20
  53046.344    1.2155E-20
  53046.406    1.1545E-20
  53046.469    1.0913E-20
  53046.539    1.0565E-20
  53046.605    1.0373E-20
  53046.668    1.0028E-20
  53046.738    9.8751E-21
  53046.801    9.8079E-21
  53046.863    9.9153E-21
  53046.926    1.0068E-20
  53046.992    1.0177E-20
  53047.055    1.0044E-20
  53047.125    9.7600E-21
  53047.188    9.6323E-21
  53047.258    9.3292E-21
  53047.320    9.0209E-21
  53047.387    8.7135E-21
  53047.457    8.3213E-21
  53047.520    7.9263E-21
  53047.582    7.4820E-21
  53047.645    7.0314E-21
  53047.711    6.6525E-21
  53047.773    6.2729E-21
  53047.844    5.7985E-21
  53047.906    5.3051E-21
  53047.969    4.8976E-21
  53048.039    4.8394E-21
  53048.105    4.7096E-21
  53048.168    4.5827E-21
  53048.238    4.4969E-21
  53048.301    4.3180E-21
  53048.363    4.0539E-21
  53048.426    3.8367E-21
  53048.492    3.5835E-21
  53048.555    3.3354E-21
  53048.625    3.2047E-21
  53048.688    3.0740E-21
  53048.758    2.9073E-21
  53048.820    2.6874E-21
  53048.887    2.6159E-21
  53048.957    2.6503E-21
  53049.020    2.6324E-21
  53049.082    2.5539E-21
  53049.145    2.4357E-21
  53049.211    2.4045E-21
  53049.273    2.5052E-21
  53049.344    2.5391E-21
  53049.406    2.4419E-21
  53049.469    2.3954E-21
  53049.539    2.2648E-21
  53049.605    2.0915E-21
  53049.668    1.8696E-21
  53049.738    1.7203E-21
  53049.801    1.6617E-21
  53049.863    1.5558E-21
  53049.926    1.5108E-21
  53049.992    1.6058E-21
  53050.055    1.7133E-21
  53050.125    1.7650E-21
  53050.188    1.8472E-21
  53050.258    1.9068E-21
  53050.320    1.8188E-21
  53050.387    1.7942E-21
  53050.457    1.7875E-21
  53050.520    1.7601E-21
  53050.582    1.6692E-21
  53050.645    1.6184E-21
  53050.711    1.6407E-21
  53050.773    1.6315E-21
  53050.844    1.6044E-21
  53050.906    1.5868E-21
  53050.969    1.5515E-21
  53051.039    1.4764E-21
  53051.105    1.3793E-21
  53051.168    1.3834E-21
  53051.238    1.3998E-21
  53051.301    1.4202E-21
  53051.363    1.4071E-21
  53051.426    1.4710E-21
  53051.492    1.5895E-21
  53051.555    1.6761E-21
  53051.625    1.5851E-21
  53051.688    1.4404E-21
  53051.758    1.2673E-21
  53051.820    1.1259E-21
  53051.887    1.0583E-21
  53051.957    1.1307E-21
  53052.020    1.2115E-21
  53052.082    1.3372E-21
  53052.145    1.5666E-21
  53052.211    1.5632E-21
  53052.273    1.3421E-21
  53052.344    1.1733E-21
  53052.406    1.1068E-21
  53052.469    1.2110E-21
  53052.539    1.3037E-21
  53052.605    1.3516E-21
  53052.668    1.2942E-21
  53052.738    1.3262E-21
  53052.801    1.3958E-21
  53052.863    1.4861E-21
  53052.926    1.6060E-21
  53052.992    1.5723E-21
  53053.063    1.4778E-21
  53053.125    1.5223E-21
  53053.188    1.6025E-21
  53053.258    1.5820E-21
  53053.324    1.5983E-21
  53053.387    1.5546E-21
  53053.457    1.5087E-21
  53053.520    1.5147E-21
  53053.582    1.4917E-21
  53053.645    1.4135E-21
  53053.711    1.3745E-21
  53053.773    1.4108E-21
  53053.844    1.4454E-21
  53053.906    1.4008E-21
  53053.977    1.2964E-21
  53054.039    1.1824E-21
  53054.105    1.0607E-21
  53054.168    1.0266E-21
  53054.238    9.8818E-22
  53054.301    9.8949E-22
  53054.363    1.0068E-21
  53054.426    1.0212E-21
  53054.492    1.0624E-21
  53054.563    1.0971E-21
  53054.625    1.0817E-21
  53054.688    1.1487E-21
  53054.758    1.2088E-21
  53054.824    1.1862E-21
  53054.887    1.1070E-21
  53054.957    1.0032E-21
  53055.020    8.1990E-22
  53055.082    7.3673E-22
  53055.145    7.7374E-22
  53055.211    7.9085E-22
  53055.273    7.9229E-22
  53055.344    8.6440E-22
  53055.406    9.2149E-22
  53055.477    9.6287E-22
  53055.539    9.7179E-22
  53055.605    9.7542E-22
  53055.676    9.5223E-22
  53055.738    9.1088E-22
  53055.801    8.2412E-22
  53055.863    7.1364E-22
  53055.930    5.9409E-22
  53055.992    5.2286E-22
  53056.063    5.0895E-22
  53056.125    5.1006E-22
  53056.188    6.2426E-22
  53056.258    7.1488E-22
  53056.324    7.6219E-22
  53056.387    7.9241E-22
  53056.457    7.9573E-22
  53056.520    8.2467E-22
  53056.582    8.9386E-22
  53056.645    8.5760E-22
  53056.711    6.5697E-22
  53056.781    5.4493E-22
  53056.844    5.4756E-22
  53056.906    6.0222E-22
  53056.977    6.9798E-22
  53057.039    7.6320E-22
  53057.105    7.7817E-22
  53057.176    7.3413E-22
  53057.238    7.8489E-22
  53057.301    8.6630E-22
  53057.363    8.0643E-22
  53057.430    7.5941E-22
  53057.492    7.3066E-22
  53057.563    7.5749E-22
  53057.625    6.7927E-22
  53057.688    5.9260E-22
  53057.758    6.6181E-22
  53057.824    7.5311E-22
  53057.887    8.6132E-22
  53057.957    8.3762E-22
  53058.020    7.5192E-22
  53058.082    6.7147E-22
  53058.145    5.4489E-22
  53058.211    5.1592E-22
  53058.281    5.2646E-22
  53058.344    4.8011E-22
  53058.406    5.1160E-22
  53058.477    4.6030E-22
  53058.543    3.8863E-22
  53058.605    2.8747E-22
  53058.676    2.9248E-22
  53058.738    3.5200E-22
  53058.801    3.8342E-22
  53058.863    4.0271E-22
  53058.930    3.6081E-22
  53058.992    3.0971E-22
  53059.063    2.9006E-22
  53059.125    2.9144E-22
  53059.195    4.1376E-22
  53059.258    6.0298E-22
  53059.324    7.5623E-22
  53059.395    7.3582E-22
  53059.457    6.0465E-22
  53059.520    4.8487E-22
  53059.582    4.1670E-22
  53059.648    3.5686E-22
  53059.711    3.9403E-22
  53059.781    4.4935E-22
  53059.844    4.3699E-22
  53059.906    4.1176E-22
  53059.977    3.8695E-22
  53060.043    3.9686E-22
  53060.105    4.1572E-22
  53060.176    4.3588E-22
  53060.238    5.3120E-22
  53060.301    6.1556E-22
  53060.363    6.5989E-22
  53060.430    6.8072E-22
  53060.500    6.7305E-22
  53060.563    6.5856E-22
  53060.625    6.5990E-22
  53060.695    5.8309E-22
  53060.762    5.0773E-22
  53060.824    4.8031E-22
  53060.895    5.4524E-22
  53060.957    6.3344E-22
  53061.020    6.4293E-22
  53061.082    6.7923E-22
  53061.148    7.1871E-22
  53061.211    6.3303E-22
  53061.281    6.7348E-22
  53061.344    7.5070E-22
  53061.414    7.2923E-22
  53061.477    6.6462E-22
  53061.543    7.0154E-22
  53061.613    6.5538E-22
  53061.676    5.6308E-22
  53061.738    5.9077E-22
  53061.801    6.5538E-22
  53061.867    6.6462E-22
  53061.930    6.2769E-22
  53062.000    5.6308E-22
  53062.063    5.0769E-22
  53062.125    5.1692E-22
  53062.195    5.9077E-22
  53062.262    5.6308E-22
  53062.324    6.2769E-22
  53062.395    5.9077E-22
  53062.457    5.3538E-22
  53062.520    5.5385E-22
  53062.582    5.0769E-22
  53062.648    5.8154E-22
  53062.719    7.1295E-22
  53062.781    7.7299E-22
  53062.844    7.1993E-22
  53062.914    6.5527E-22
  53062.980    6.5035E-22
  53063.043    5.8154E-22
  53063.113    5.5385E-22
  53063.176    4.8923E-22
  53063.238    5.3538E-22
  53063.301    5.5385E-22
  53063.367    5.1692E-22
  53063.430    5.5385E-22
  53063.500    4.5671E-22
  53063.563    3.5009E-22
  53063.633    3.2002E-22
  53063.695    3.1685E-22
  53063.762    2.6464E-22
  53063.832    1.3350E-22
  53063.895    3.9972E-23
  53063.957   -1.2414E-23
  53064.020    3.3310E-24
  53064.086    6.1491E-23
  53064.148    2.0097E-22
  53064.219    4.0514E-22
  53064.281    4.8536E-22
  53064.344    4.0126E-22
  53064.414    3.0607E-22
  53064.480    2.5781E-22
  53064.543    3.2934E-22
  53064.613    4.1997E-22
  53064.676    4.5586E-22
  53064.738    4.0431E-22
  53064.801    4.0968E-22
  53064.867    4.1886E-22
  53064.938    4.7124E-22
  53065.000    5.1367E-22
  53065.063    5.5334E-22
  53065.133    5.6186E-22
  53065.199    4.9039E-22
  53065.262    3.9243E-22
  53065.332    3.5600E-22
  53065.395    3.0792E-22
  53065.457    2.6522E-22
  53065.520    3.7862E-22
  53065.586    5.1513E-22
  53065.648    4.6230E-22
  53065.719    4.2265E-22
  53065.781    3.0483E-22
  53065.852    1.6126E-22
  53065.914    8.7894E-23
  53065.980    4.0675E-23
  53066.051    7.2397E-23
  53066.113    1.3806E-22
  53066.176    1.9728E-22
  53066.238    2.6299E-22
  53066.305    2.5377E-22
  53066.367    2.2338E-22
  53066.438    1.3161E-22
  53066.500    9.5812E-23
  53066.563    2.3376E-22
  53066.633    2.2523E-22
  53066.699    2.3542E-22
  53066.762    2.5074E-22
  53066.832    2.6003E-22
  53066.895    3.1117E-22
  53066.957    4.5560E-22
  53067.020    4.8759E-22
  53067.086    4.8958E-22
  53067.156    4.5732E-22
  53067.219    3.8971E-22
  53067.281    4.0836E-22
  53067.352    3.9427E-22
  53067.418    4.3319E-22
  53067.480    4.8942E-22
  53067.551    4.8979E-22
  53067.613    5.1817E-22
  53067.676    5.8586E-22
  53067.738    6.4272E-22
  53067.805    5.7395E-22
  53067.875    4.5929E-22
  53067.938    2.7134E-22
  53068.000    2.5282E-22
  53068.070    3.4153E-22
  53068.133    3.7538E-22
  53068.199    2.5538E-22
  53068.270    3.0154E-22
  53068.332    3.2000E-22
  53068.395    2.7385E-22
  53068.457    2.2769E-22
  53068.523    1.7231E-22
  53068.586    2.1846E-22
  53068.656    2.4615E-22
  53068.719    1.8154E-22
  53068.789    2.5538E-22
  53068.852    3.0154E-22
  53068.918    2.9231E-22
  53068.988    2.2769E-22
  53069.051    1.4462E-22
  53069.113    1.7231E-22
  53069.176    2.0000E-22
  53069.242    1.5385E-22
  53069.305    2.1846E-22
  53069.375    2.4615E-22
  53069.438    1.4462E-22
  53069.500    8.0000E-23
  53069.570    3.3846E-23
  53069.637    9.8462E-23
  53069.699    6.1539E-24
  53069.770    9.8462E-23
  53069.832    1.5385E-22
  53069.895    9.8462E-23
  53069.957    7.0769E-23
  53070.023    3.3846E-23
  53070.094    9.8462E-23
  53070.156    1.5385E-22
  53070.219    1.0769E-22
  53070.289    3.0154E-22
  53070.355    1.8154E-22
  53070.418    1.7231E-22
  53070.488    1.0769E-22
  53070.551    3.3846E-23
  53070.613    9.8462E-23
  53070.676    7.0769E-23
  53070.742    1.5385E-22
  53070.805    1.8154E-22
  53070.875    5.2308E-23
  53070.938   -3.0769E-24
  53071.008    2.4615E-23
  53071.070   -4.0000E-23
  53071.137    9.8462E-23
  53071.207    1.5385E-22
  53071.270    1.0769E-22
  53071.332    6.1539E-24
  53071.395    2.1846E-22
  53071.461    1.0769E-22
  53071.523    6.1539E-24
  53071.594   -1.2282E-22
  53071.656   -8.0428E-23
  53071.727   -2.4480E-22
  53071.789   -1.6976E-22
  53071.855    2.4615E-23
  53071.926   -3.2941E-22
  53071.988   -4.5964E-22
  53072.051   -1.2256E-22
  53072.113    2.3674E-22
  53072.180    1.3158E-22
  53072.242    4.7769E-22
  53072.313    1.0333E-22
  53072.375    3.0808E-22
  53072.438    3.9742E-22
  53072.508    1.3163E-22
  53072.574   -6.4035E-23
  53072.637    4.1241E-22
  53072.707    6.0234E-22
  53072.770    2.4615E-22
  53072.832    3.0154E-22
  53072.895    2.0000E-22
  53072.961    3.2400E-22
  53073.031    2.3066E-22
  53073.094    1.4343E-22
  53073.156   -1.5823E-22
  53073.227   -1.5352E-22
  53073.293   -2.4057E-22
  53073.355   -2.6081E-22
  53073.426   -1.6601E-22
  53073.488    2.1051E-22
  53073.551   -9.5385E-23
  53073.613   -1.9692E-22
  53073.680   -7.6923E-23
  53073.750   -4.9826E-23
  53073.813   -1.9865E-22
  53073.875   -2.9346E-22
  53073.945   -2.3977E-22
  53074.012   -2.2452E-22
  53074.074   -2.2731E-22
  53074.145   -3.1670E-22
  53074.207   -4.2716E-22
  53074.270   -3.8698E-22
  53074.332   -2.0273E-22
  53074.398    4.9170E-23
  53074.461    2.3880E-22
  53074.531    3.3542E-22
  53074.594    1.6849E-22
  53074.664    8.4188E-23
  53074.727    5.2395E-23
  53074.793   -1.0207E-22
  53074.863   -4.6864E-23
  53074.926   -7.0730E-23
  53074.988   -1.2085E-22
