 16O18O;(9,0);79K;54325-575 cm-1;3634 pts
     WNO          SIG
  54325.043   -2.4875E-21
  54325.113   -2.6325E-21
  54325.180   -2.5887E-21
  54325.250   -2.0940E-21
  54325.320   -1.2030E-21
  54325.387   -6.6977E-22
  54325.457    7.1104E-22
  54325.523    1.4525E-21
  54325.594    1.2306E-21
  54325.664    1.2260E-21
  54325.730    1.4951E-21
  54325.793    1.6504E-21
  54325.863    1.3654E-21
  54325.930    8.9746E-22
  54326.000    3.5147E-22
  54326.070    1.2715E-23
  54326.137   -2.2846E-22
  54326.207   -5.5775E-22
  54326.273   -1.5883E-21
  54326.344   -1.1526E-21
  54326.414    2.8295E-22
  54326.480    1.0291E-21
  54326.551    1.2595E-21
  54326.617    1.7983E-21
  54326.688    2.5163E-21
  54326.758    3.1706E-21
  54326.824    3.7783E-21
  54326.895    3.6700E-21
  54326.961    3.3151E-21
  54327.031    3.5560E-21
  54327.102    3.7107E-21
  54327.168    3.8049E-21
  54327.230    4.2214E-21
  54327.301    2.9836E-21
  54327.367    2.0877E-21
  54327.438    1.8572E-21
  54327.512    1.9225E-21
  54327.574    1.8492E-21
  54327.645    2.0284E-21
  54327.711    2.3701E-21
  54327.781    2.9937E-21
  54327.852    2.9815E-21
  54327.918    2.4390E-21
  54327.988    1.2888E-21
  54328.055   -2.6297E-22
  54328.125   -7.0888E-22
  54328.195   -5.4348E-22
  54328.262   -8.2415E-22
  54328.332   -5.2579E-22
  54328.398    1.4756E-22
  54328.469    1.5043E-22
  54328.539    1.9793E-24
  54328.605   -4.9583E-22
  54328.676   -1.1765E-21
  54328.738   -1.6756E-21
  54328.813   -1.8870E-21
  54328.875   -1.5457E-21
  54328.949   -9.6385E-22
  54329.012   -1.2255E-21
  54329.082   -1.3630E-21
  54329.148   -1.6776E-21
  54329.219   -1.3247E-21
  54329.289   -2.2837E-22
  54329.355   -1.4629E-22
  54329.426   -9.4480E-22
  54329.492   -1.6327E-21
  54329.563   -1.9001E-21
  54329.633   -1.7929E-21
  54329.699   -1.7607E-21
  54329.770   -8.1400E-22
  54329.836    1.1179E-21
  54329.906    2.2471E-21
  54329.977    2.0523E-21
  54330.043    9.9246E-22
  54330.113   -4.0409E-23
  54330.180   -4.5885E-22
  54330.250   -3.5640E-22
  54330.320   -2.4391E-22
  54330.387    5.7228E-22
  54330.449    8.4274E-22
  54330.520    6.1316E-22
  54330.586    3.7326E-22
  54330.656    1.0611E-21
  54330.730    1.0322E-21
  54330.793    5.4942E-22
  54330.863    2.3848E-22
  54330.930   -2.2897E-22
  54331.000    2.4598E-23
  54331.070    2.8451E-22
  54331.137   -5.7914E-22
  54331.207   -9.7089E-22
  54331.273   -5.9469E-22
  54331.344   -8.6458E-22
  54331.414   -1.1787E-21
  54331.480   -1.4310E-21
  54331.551   -1.6578E-21
  54331.617   -1.9017E-21
  54331.688   -1.2348E-21
  54331.758    2.2073E-22
  54331.824    4.7380E-22
  54331.895    3.0961E-22
  54331.957    2.4487E-22
  54332.031   -4.3286E-22
  54332.094   -1.3978E-21
  54332.168   -1.6778E-21
  54332.230   -1.4263E-21
  54332.301   -4.7620E-22
  54332.367   -2.9325E-24
  54332.438   -2.9891E-22
  54332.508   -1.1558E-21
  54332.574   -1.6970E-21
  54332.645   -9.8512E-22
  54332.711   -1.6330E-22
  54332.781    4.6867E-22
  54332.852    1.4260E-22
  54332.918   -7.0430E-23
  54332.988   -1.2646E-21
  54333.055   -1.7907E-21
  54333.125   -1.0928E-21
  54333.195   -3.8217E-22
  54333.262    5.4000E-22
  54333.332    1.4996E-21
  54333.398    2.4157E-21
  54333.469    2.0579E-21
  54333.539    1.4410E-21
  54333.605    8.6892E-22
  54333.668    3.1200E-22
  54333.738   -4.1159E-22
  54333.805   -1.6556E-21
  54333.875   -1.8256E-21
  54333.949   -1.3255E-21
  54334.012   -7.8484E-22
  54334.082   -2.7354E-22
  54334.148   -3.3781E-22
  54334.219   -6.5491E-22
  54334.289   -7.8745E-22
  54334.355   -7.7041E-22
  54334.426   -8.9891E-22
  54334.492   -6.5563E-22
  54334.563   -5.4179E-22
  54334.633   -4.9806E-22
  54334.699   -4.3171E-22
  54334.770    4.2770E-22
  54334.836    1.6501E-21
  54334.906    2.1434E-21
  54334.977    1.3585E-21
  54335.043    8.3707E-22
  54335.113    7.8185E-22
  54335.180    1.2311E-21
  54335.250    1.4115E-21
  54335.320    1.5802E-21
  54335.387    2.0974E-21
  54335.449    1.7552E-21
  54335.520    1.1413E-21
  54335.586    6.2637E-22
  54335.656   -3.1226E-23
  54335.730   -1.1554E-21
  54335.793   -1.7233E-21
  54335.863   -1.9900E-21
  54335.930   -1.7357E-21
  54336.000   -1.1953E-21
  54336.070   -9.5483E-22
  54336.137   -8.3332E-22
  54336.207   -3.1665E-22
  54336.273    1.0648E-22
  54336.344   -3.8743E-22
  54336.414   -6.9728E-22
  54336.480   -1.4976E-22
  54336.551    5.6494E-22
  54336.617    1.2820E-21
  54336.688    2.6273E-21
  54336.758    3.7460E-21
  54336.824    3.7370E-21
  54336.895    3.1461E-21
  54336.957    2.5642E-21
  54337.031    1.6253E-21
  54337.094    9.5154E-22
  54337.168    2.3376E-23
  54337.230   -6.4965E-22
  54337.301   -8.7463E-22
  54337.367   -5.7791E-22
  54337.438   -4.4996E-22
  54337.508   -4.4188E-22
  54337.574   -4.4707E-22
  54337.645    6.5993E-23
  54337.711    3.1863E-23
  54337.781    6.0755E-23
  54337.852    6.0113E-23
  54337.918    5.6707E-23
  54337.988   -1.4387E-22
  54338.055    1.4624E-22
  54338.125    8.1824E-22
  54338.195    4.0566E-22
  54338.262    4.1714E-22
  54338.332    4.3053E-22
  54338.398    4.5937E-22
  54338.469    8.1508E-22
  54338.539    1.5174E-21
  54338.605    1.7455E-21
  54338.676    1.3214E-21
  54338.738    6.3258E-22
  54338.813   -7.1070E-22
  54338.875   -1.9139E-21
  54338.949   -1.9896E-21
  54339.012   -1.6419E-21
  54339.082   -6.6897E-22
  54339.148    2.2450E-22
  54339.219    3.8116E-22
  54339.289   -4.7492E-22
  54339.355   -1.6361E-21
  54339.426   -2.1719E-21
  54339.492   -1.2859E-21
  54339.563   -1.1708E-21
  54339.633   -8.6438E-22
  54339.699   -2.3370E-22
  54339.770   -1.5264E-22
  54339.836    3.8187E-22
  54339.906    4.8982E-22
  54339.977    3.1676E-22
  54340.043    9.9498E-24
  54340.113   -5.4106E-22
  54340.180   -1.5910E-21
  54340.250   -3.0036E-21
  54340.320   -3.5938E-21
  54340.387   -3.5515E-21
  54340.457   -3.4116E-21
  54340.520   -1.8683E-21
  54340.594   -7.0449E-22
  54340.656    2.7131E-22
  54340.730    5.7781E-22
  54340.793    6.4988E-22
  54340.863    7.3545E-22
  54340.930    2.0263E-21
  54341.000    2.1198E-21
  54341.070    9.9690E-22
  54341.137    9.0238E-22
  54341.207    1.5850E-21
  54341.273    1.9146E-21
  54341.344    2.1140E-21
  54341.414    1.4424E-21
  54341.480    4.5128E-22
  54341.551   -2.3400E-22
  54341.617    1.1442E-23
  54341.688    3.9435E-22
  54341.758    9.3006E-22
  54341.824    1.1222E-21
  54341.895    1.6497E-21
  54341.961    2.7612E-21
  54342.031    2.6375E-21
  54342.102    1.6750E-21
  54342.168    3.5703E-22
  54342.238   -3.8288E-22
  54342.301    4.5057E-22
  54342.375    1.9401E-21
  54342.438    2.5563E-21
  54342.512    2.0327E-21
  54342.574    8.6925E-22
  54342.645    2.2090E-22
  54342.711   -1.1113E-22
  54342.781   -5.8679E-22
  54342.852    5.2705E-23
  54342.918    5.0431E-22
  54342.988    9.3008E-22
  54343.055    7.8420E-22
  54343.125    1.6143E-21
  54343.195    2.7303E-21
  54343.262    2.9788E-21
  54343.332    3.3875E-21
  54343.398    3.6033E-21
  54343.469    3.2166E-21
  54343.539    2.0848E-21
  54343.605    1.2365E-21
  54343.676    1.0513E-22
  54343.742   -2.7012E-22
  54343.813    2.1137E-22
  54343.883    8.7725E-22
  54343.949    1.7251E-21
  54344.020    1.6603E-21
  54344.082    1.5940E-21
  54344.156    1.3512E-21
  54344.219    2.0421E-21
  54344.293    2.6914E-21
  54344.355    3.9750E-21
  54344.426    4.1034E-21
  54344.492    3.7642E-21
  54344.563    4.0721E-21
  54344.637    3.9861E-21
  54344.699    4.6810E-21
  54344.770    4.4426E-21
  54344.836    4.0992E-21
  54344.906    3.0592E-21
  54344.977    2.6814E-21
  54345.043    3.0704E-21
  54345.113    2.7165E-21
  54345.180    1.3434E-21
  54345.250    5.7545E-22
  54345.320    1.0589E-22
  54345.387   -7.1339E-22
  54345.457    6.0946E-22
  54345.523    3.0961E-22
  54345.594    6.0773E-22
  54345.664    5.4866E-22
  54345.730    4.1112E-22
  54345.801    6.6488E-22
  54345.867    1.5903E-21
  54345.938    2.6157E-21
  54346.008    2.3283E-21
  54346.074    2.4443E-21
  54346.137    1.9698E-21
  54346.207    1.3479E-21
  54346.273    1.0965E-21
  54346.344    6.2460E-22
  54346.418   -5.4155E-22
  54346.480   -1.2364E-21
  54346.551   -5.0157E-22
  54346.617   -2.4145E-22
  54346.688   -1.6831E-22
  54346.758    1.8859E-22
  54346.824    2.9577E-22
  54346.895   -4.0872E-23
  54346.961   -2.2476E-22
  54347.031   -3.8528E-22
  54347.102   -5.8107E-22
  54347.168   -5.2561E-22
  54347.238   -8.3059E-22
  54347.305   -1.3155E-21
  54347.375   -1.4897E-21
  54347.445   -1.7984E-21
  54347.512   -1.0208E-21
  54347.582   -6.2231E-22
  54347.648   -8.1251E-22
  54347.719   -1.1474E-21
  54347.789   -1.1815E-21
  54347.855   -1.0974E-21
  54347.918   -1.2747E-21
  54347.988   -1.3194E-21
  54348.063   -1.2338E-21
  54348.125    9.9295E-24
  54348.199    6.6042E-22
  54348.262    7.0221E-22
  54348.332    7.3331E-22
  54348.398    3.8644E-22
  54348.469    7.3453E-22
  54348.539    1.7863E-21
  54348.605    2.5678E-21
  54348.676    2.0370E-21
  54348.742    1.4149E-22
  54348.813   -1.3188E-21
  54348.883   -1.6617E-21
  54348.949   -1.4988E-21
  54349.020   -4.8735E-22
  54349.086    7.5276E-23
  54349.156    1.1161E-22
  54349.227    1.6727E-22
  54349.293    3.3520E-22
  54349.363    5.4354E-22
  54349.430    6.8586E-22
  54349.500    7.3755E-22
  54349.570    8.6322E-22
  54349.637    9.8317E-22
  54349.707    1.5659E-21
  54349.773    2.5787E-21
  54349.844    3.6115E-21
  54349.914    4.0696E-21
  54349.980    3.4922E-21
  54350.043    2.6777E-21
  54350.113    2.7902E-21
  54350.180    3.9717E-21
  54350.250    4.5995E-21
  54350.324    5.3260E-21
  54350.387    5.8111E-21
  54350.457    6.4025E-21
  54350.523    6.3086E-21
  54350.594    6.0568E-21
  54350.664    5.6258E-21
  54350.730    5.6243E-21
  54350.801    5.2492E-21
  54350.867    4.7915E-21
  54350.938    5.1368E-21
  54351.008    5.1768E-21
  54351.074    5.2826E-21
  54351.145    5.0154E-21
  54351.211    4.4034E-21
  54351.281    3.1402E-21
  54351.352    2.0915E-21
  54351.418    8.4796E-22
  54351.488   -7.4131E-22
  54351.555   -9.7501E-22
  54351.625   -1.6248E-22
  54351.695    1.0406E-21
  54351.762    2.0821E-21
  54351.832    2.0809E-21
  54351.895    1.7500E-21
  54351.969    1.6894E-21
  54352.031    1.3990E-21
  54352.105    8.9409E-22
  54352.168    1.1401E-22
  54352.238   -2.9317E-22
  54352.305   -4.9886E-22
  54352.375    1.8323E-22
  54352.449    7.7575E-22
  54352.512    6.8436E-22
  54352.582    2.5275E-22
  54352.648    3.7542E-22
  54352.719   -1.2128E-22
  54352.789   -1.2399E-22
  54352.855   -9.3387E-22
  54352.926   -1.7647E-21
  54352.992   -1.4960E-21
  54353.063   -1.5227E-21
  54353.133   -1.7551E-21
  54353.199   -1.3258E-21
  54353.270   -9.7495E-22
  54353.336   -6.1112E-22
  54353.406   -9.6901E-22
  54353.477   -1.0113E-21
  54353.543   -1.3361E-22
  54353.613    8.8430E-22
  54353.680    1.1070E-21
  54353.750    5.1164E-22
  54353.820   -6.3109E-23
  54353.887    1.9499E-22
  54353.949    9.6436E-22
  54354.020    1.2992E-21
  54354.094    1.0106E-21
  54354.156    3.0336E-22
  54354.230   -4.5718E-22
  54354.293   -8.1996E-22
  54354.363   -1.3241E-21
  54354.430   -1.6123E-21
  54354.500   -2.1087E-21
  54354.570   -2.4813E-21
  54354.637   -1.6309E-21
  54354.707   -9.2281E-22
  54354.773   -1.1499E-21
  54354.844   -1.8219E-21
  54354.914   -2.5690E-21
  54354.980   -3.0495E-21
  54355.051   -2.9855E-21
  54355.117   -2.5818E-21
  54355.188   -1.1088E-21
  54355.258    7.3524E-22
  54355.324    1.8202E-21
  54355.395    1.8602E-21
  54355.461    1.3373E-21
  54355.531    3.3898E-22
  54355.602   -3.0558E-22
  54355.668   -3.9464E-22
  54355.738   -8.7548E-22
  54355.805   -5.7773E-22
  54355.875   -7.4804E-22
  54355.945   -1.5114E-21
  54356.012   -1.6503E-21
  54356.074   -1.1427E-21
  54356.145   -9.6100E-22
  54356.219   -6.8038E-22
  54356.281   -1.2121E-23
  54356.355    9.2246E-22
  54356.418    1.2081E-21
  54356.488    1.1289E-21
  54356.555    1.7727E-22
  54356.625   -8.2925E-22
  54356.699   -6.8004E-22
  54356.762   -8.7220E-22
  54356.832   -1.0153E-21
  54356.898   -1.0022E-21
  54356.969   -2.7159E-22
  54357.039   -1.6325E-23
  54357.105    2.2067E-22
  54357.176    3.5417E-22
  54357.242   -2.6553E-22
  54357.313   -1.1092E-21
  54357.383   -2.1456E-21
  54357.449   -2.4147E-21
  54357.520   -1.7224E-21
  54357.586   -1.0471E-21
  54357.656   -4.2425E-22
  54357.727   -2.7356E-22
  54357.793   -6.3479E-22
  54357.863   -9.3658E-22
  54357.930   -1.4292E-21
  54358.000   -1.4834E-21
  54358.070   -1.3431E-21
  54358.137   -2.0936E-21
  54358.207   -2.7388E-21
  54358.270   -3.4773E-21
  54358.344   -3.5127E-21
  54358.406   -1.7868E-21
  54358.480   -2.3269E-22
  54358.543    1.4376E-21
  54358.613    2.2805E-21
  54358.680    2.1933E-21
  54358.750    1.6768E-21
  54358.824    1.5492E-21
  54358.887    9.3047E-22
  54358.957    5.0170E-22
  54359.023    1.1537E-21
  54359.094    1.3402E-21
  54359.164    1.3784E-21
  54359.230    1.5258E-21
  54359.301    1.1338E-21
  54359.367    1.2850E-21
  54359.438    5.4200E-22
  54359.508   -4.3403E-22
  54359.574   -5.5273E-22
  54359.645   -1.0619E-21
  54359.711   -8.7754E-22
  54359.781   -7.0754E-22
  54359.852   -1.2070E-21
  54359.918   -1.3791E-21
  54359.988   -1.0396E-21
  54360.055   -5.9513E-22
  54360.125   -6.9060E-22
  54360.195   -1.5739E-21
  54360.262   -1.4101E-21
  54360.332   -4.6741E-22
  54360.398    4.4092E-22
  54360.469    1.1906E-21
  54360.539    1.6985E-21
  54360.605    2.6369E-21
  54360.668    2.3290E-21
  54360.738    1.6842E-21
  54360.805    1.7408E-21
  54360.875    1.2733E-21
  54360.949    1.0752E-21
  54361.012    1.6207E-21
  54361.082    2.0127E-21
  54361.148    1.4866E-21
  54361.219    5.5420E-22
  54361.289   -2.0131E-22
  54361.355   -2.4229E-22
  54361.426   -8.6441E-22
  54361.492   -1.4648E-21
  54361.563   -2.2563E-21
  54361.633   -3.1232E-21
  54361.699   -2.9947E-21
  54361.770   -2.5045E-21
  54361.836   -1.7406E-21
  54361.906   -1.2061E-21
  54361.977   -8.4764E-22
  54362.043   -1.0731E-21
  54362.113   -6.4071E-22
  54362.180    6.5529E-23
  54362.250    5.8284E-22
  54362.320    7.6355E-22
  54362.387    1.2942E-21
  54362.457    1.0576E-21
  54362.523    1.0523E-21
  54362.594    1.1850E-21
  54362.664    1.4242E-21
  54362.730    1.4765E-21
  54362.801    8.9395E-22
  54362.863    2.0869E-22
  54362.938   -5.1777E-22
  54363.000   -9.5620E-22
  54363.074   -7.8241E-22
  54363.137   -7.0085E-22
  54363.207   -8.6862E-22
  54363.273   -1.2345E-21
  54363.344   -1.9430E-21
  54363.418   -1.8450E-21
  54363.480   -1.2721E-21
  54363.551   -7.5776E-22
  54363.617   -6.3828E-22
  54363.688   -2.7365E-22
  54363.758    2.2831E-22
  54363.824    5.7189E-22
  54363.895    2.1729E-22
  54363.961   -9.8963E-23
  54364.031    3.3876E-22
  54364.102    3.3618E-22
  54364.168   -1.0961E-22
  54364.238   -5.9181E-22
  54364.305   -1.7119E-21
  54364.375   -2.0332E-21
  54364.445   -1.5720E-21
  54364.512   -9.0890E-22
  54364.582   -6.7107E-22
  54364.648   -1.1885E-21
  54364.719   -5.5812E-22
  54364.789    3.1678E-22
  54364.855    1.3573E-21
  54364.926    2.2118E-21
  54364.992    2.6180E-21
  54365.063    2.5550E-21
  54365.133    2.1022E-21
  54365.199    2.1820E-21
  54365.262    2.2551E-21
  54365.332    2.6155E-21
  54365.406    3.6304E-21
  54365.469    3.8582E-21
  54365.543    3.5807E-21
  54365.605    3.8106E-21
  54365.676    3.7074E-21
  54365.742    3.1993E-21
  54365.813    2.2612E-21
  54365.887    1.5080E-21
  54365.949    1.3053E-21
  54366.020    1.6726E-21
  54366.086    2.3095E-21
  54366.156    2.5936E-21
  54366.227    2.2240E-21
  54366.293    1.5311E-21
  54366.363    1.2494E-21
  54366.430    1.8718E-21
  54366.500    2.4633E-21
  54366.570    3.0731E-21
  54366.637    3.9468E-21
  54366.707    4.4137E-21
  54366.773    4.3639E-21
  54366.844    4.0135E-21
  54366.914    3.7469E-21
  54366.980    3.9771E-21
  54367.051    2.9292E-21
  54367.117    6.8407E-21
  54367.188    6.0151E-21
  54367.258    5.4570E-21
  54367.324    4.5499E-21
  54367.395    3.7525E-21
  54367.461    5.7028E-21
  54367.531    5.4939E-21
  54367.602    3.1556E-21
  54367.668    2.7240E-21
  54367.730    1.3997E-21
  54367.801   -1.6687E-22
  54367.875    3.0587E-23
  54367.938    4.5391E-22
  54368.012    3.6680E-21
  54368.074    3.7059E-21
  54368.145    3.5776E-21
  54368.211    3.6580E-21
  54368.281    5.7032E-21
  54368.355    6.2431E-21
  54368.418    5.5574E-21
  54368.488    5.6738E-21
  54368.555    5.1611E-21
  54368.625    4.3714E-21
  54368.695    3.5689E-21
  54368.762    2.7502E-21
  54368.832    2.0872E-21
  54368.898    1.1491E-21
  54368.969    2.4848E-22
  54369.039    3.5349E-22
  54369.105    6.4961E-22
  54369.176    3.2641E-22
  54369.242   -3.8522E-22
  54369.313   -9.5866E-22
  54369.383   -7.1779E-22
  54369.449    1.4564E-22
  54369.520    4.2948E-22
  54369.586    1.2214E-22
  54369.656   -9.8238E-22
  54369.727   -1.7874E-21
  54369.793   -1.8185E-22
  54369.863   -1.2609E-21
  54369.930   -2.0678E-21
  54370.000   -2.2452E-21
  54370.070   -4.0021E-22
  54370.137    4.0289E-23
  54370.207    7.6776E-23
  54370.270    2.1180E-21
  54370.344    2.4235E-21
  54370.414    1.5887E-21
  54370.480    2.5209E-21
  54370.543    3.6219E-21
  54370.613    4.3408E-21
  54370.680    5.0271E-21
  54370.750    5.1247E-21
  54370.824    4.1649E-21
  54370.887    2.8796E-21
  54370.957    2.3056E-21
  54371.023    2.1360E-21
  54371.094    4.8404E-21
  54371.164    6.2020E-21
  54371.230    5.9021E-21
  54371.301    6.3795E-21
  54371.367    5.3039E-21
  54371.438    5.2396E-21
  54371.508    5.7420E-21
  54371.574    9.2344E-21
  54371.645    9.0674E-21
  54371.711    7.7924E-21
  54371.781    8.9331E-21
  54371.852    1.0386E-20
  54371.918    1.1079E-20
  54371.988    1.2226E-20
  54372.055    1.3132E-20
  54372.125    1.3732E-20
  54372.195    1.4394E-20
  54372.262    1.4573E-20
  54372.332    1.4558E-20
  54372.398    1.4528E-20
  54372.469    1.4754E-20
  54372.539    1.4414E-20
  54372.605    1.3708E-20
  54372.676    1.3994E-20
  54372.742    1.3486E-20
  54372.813    1.2066E-20
  54372.883    9.9388E-21
  54372.949    8.5367E-21
  54373.020    8.4514E-21
  54373.082    9.2620E-21
  54373.156    9.8537E-21
  54373.227    1.0086E-20
  54373.293    9.7132E-21
  54373.355    8.7204E-21
  54373.426    8.0177E-21
  54373.492    6.5880E-21
  54373.563    5.5281E-21
  54373.637    3.7360E-21
  54373.699    1.4570E-21
  54373.770   -2.8053E-22
  54373.836   -1.0175E-21
  54373.906   -1.2018E-21
  54373.977   -1.3309E-21
  54374.043   -9.8643E-22
  54374.113   -1.5061E-21
  54374.180   -1.2406E-21
  54374.250   -4.8149E-22
  54374.320    4.7793E-22
  54374.387    5.3619E-22
  54374.457   -1.2460E-22
  54374.523   -2.4407E-22
  54374.594   -5.1713E-22
  54374.664   -5.3918E-22
  54374.730   -2.3616E-22
  54374.801   -1.3207E-22
  54374.867   -1.4470E-22
  54374.938   -1.0347E-22
  54375.008   -3.3284E-22
  54375.074   -1.0183E-22
  54375.145   -2.2556E-22
  54375.211   -1.0764E-21
  54375.281   -2.1254E-21
  54375.352   -2.5907E-21
  54375.418   -2.1598E-21
  54375.488   -1.5446E-21
  54375.555   -6.5810E-22
  54375.625    1.9617E-22
  54375.695    1.0387E-21
  54375.762    2.2468E-21
  54375.832    2.8021E-21
  54375.895    2.3859E-21
  54375.969    1.9188E-21
  54376.039    1.6506E-21
  54376.105    1.9770E-21
  54376.168    2.4359E-21
  54376.238    2.4471E-21
  54376.305    2.5660E-21
  54376.375    2.5140E-21
  54376.449    2.8745E-21
  54376.512    3.0997E-21
  54376.582    2.7802E-21
  54376.648    2.3860E-21
  54376.719    1.8494E-21
  54376.789    1.4264E-21
  54376.855    1.4104E-21
  54376.926    1.7769E-21
  54376.992    2.1170E-21
  54377.063    2.1715E-21
  54377.133    1.8058E-21
  54377.199    9.9344E-22
  54377.270    7.9667E-22
  54377.336    9.8941E-22
  54377.406    1.1305E-21
  54377.477    3.1891E-22
  54377.543   -1.1057E-21
  54377.613   -2.0986E-21
  54377.680   -2.6538E-21
  54377.750   -2.5811E-21
  54377.820   -1.7390E-21
  54377.887   -9.2533E-22
  54377.957    4.7270E-22
  54378.023    1.8007E-21
  54378.094    2.0272E-21
  54378.164    7.2207E-22
  54378.230   -3.5815E-22
  54378.301   -7.7359E-22
  54378.367   -8.5871E-22
  54378.438    3.2419E-22
  54378.508    1.6851E-21
  54378.574    2.1445E-21
  54378.645    2.3132E-21
  54378.711    2.3466E-21
  54378.781    1.2790E-21
  54378.852    7.0883E-22
  54378.918    7.9433E-22
  54378.980    7.0760E-22
  54379.051   -2.7943E-22
  54379.125   -9.6427E-22
  54379.188   -8.9084E-22
  54379.262   -3.9889E-22
  54379.324   -3.4083E-22
  54379.395   -1.6760E-22
  54379.461    1.1139E-22
  54379.531    6.1072E-22
  54379.605    1.4143E-21
  54379.668    1.9843E-21
  54379.738    2.2220E-21
  54379.805    2.3449E-21
  54379.875    1.6080E-21
  54379.945    6.5721E-22
  54380.012    3.6752E-22
  54380.082    2.9132E-22
  54380.148    6.1155E-22
  54380.219    7.4860E-22
  54380.289    1.1398E-21
  54380.355    8.6236E-22
  54380.426    1.3099E-21
  54380.492    1.8668E-21
  54380.563    2.4954E-21
  54380.633    2.6276E-21
  54380.699    1.3484E-21
  54380.770   -1.1886E-22
  54380.836   -7.3405E-22
  54380.906   -6.7408E-22
  54380.977   -1.1553E-21
  54381.043   -1.2279E-21
  54381.113   -1.3056E-21
  54381.180   -1.7947E-21
  54381.250   -2.3244E-21
  54381.320   -2.7166E-21
  54381.387   -2.8673E-21
  54381.457   -2.0612E-21
  54381.523   -1.6515E-21
  54381.594   -1.9342E-21
  54381.664   -1.8360E-21
  54381.730   -1.3644E-21
  54381.801   -8.9511E-22
  54381.867   -8.1117E-22
  54381.938   -5.6376E-22
  54382.008   -2.3527E-24
  54382.074    2.6087E-22
  54382.137    1.0338E-21
  54382.207    2.5034E-21
  54382.281    3.4496E-21
  54382.344    3.3333E-21
  54382.418    2.8263E-21
  54382.480    1.7430E-21
  54382.551    1.3051E-21
  54382.617    9.1813E-22
  54382.688    1.9528E-22
  54382.762    1.1004E-23
  54382.824   -8.8127E-22
  54382.895   -9.2923E-22
  54382.961   -1.0696E-21
  54383.031   -1.3699E-21
  54383.102   -1.3379E-21
  54383.168    3.3870E-22
  54383.238    1.5622E-21
  54383.305    1.9465E-21
  54383.375    1.0896E-21
  54383.445    2.4013E-22
  54383.512    8.4288E-23
  54383.582    8.7206E-22
  54383.648    1.7399E-21
  54383.719    2.3560E-21
  54383.789    2.2677E-21
  54383.855    1.7872E-21
  54383.926    2.8341E-22
  54383.992   -1.0744E-21
  54384.063   -1.5530E-21
  54384.133   -2.3154E-21
  54384.199   -1.8962E-21
  54384.270   -9.2117E-22
  54384.336    7.9348E-23
  54384.406    4.4425E-22
  54384.477    7.6894E-23
  54384.543   -5.6264E-22
  54384.613   -6.1887E-22
  54384.680   -2.5452E-22
  54384.750    8.0533E-23
  54384.820   -4.2490E-22
  54384.887   -1.3495E-21
  54384.957   -1.9148E-21
  54385.023   -1.4958E-21
  54385.094   -3.8045E-22
  54385.164    2.9550E-22
  54385.230    1.3840E-21
  54385.301    2.2009E-21
  54385.363    2.3705E-21
  54385.438    1.9725E-21
  54385.508    1.4749E-21
  54385.574    1.1411E-21
  54385.637    1.3005E-21
  54385.707    1.9867E-21
  54385.781    1.7658E-21
  54385.844    1.4714E-21
  54385.918    1.0172E-21
  54385.980    1.6153E-21
  54386.051    2.7009E-21
  54386.117    3.5995E-21
  54386.188    4.9435E-21
  54386.262    6.2219E-21
  54386.324    6.5901E-21
  54386.395    6.3098E-21
  54386.461    5.3799E-21
  54386.531    4.3201E-21
  54386.602    3.7676E-21
  54386.668    3.1390E-21
  54386.738    2.9272E-21
  54386.805    2.8192E-21
  54386.875    2.5663E-21
  54386.945    2.7062E-21
  54387.012    2.6164E-21
  54387.082    2.9761E-21
  54387.148    2.5618E-21
  54387.219    1.0931E-21
  54387.289    1.5143E-21
  54387.355    7.2350E-22
  54387.426   -1.2476E-22
  54387.492    4.5455E-22
  54387.563    4.3368E-22
  54387.633   -3.3767E-22
  54387.699   -2.1861E-21
  54387.770    4.3355E-22
  54387.836    9.5632E-22
  54387.906    1.6312E-21
  54387.977    3.9298E-21
  54388.043    4.5819E-21
  54388.113    1.6480E-21
  54388.180    1.6229E-21
  54388.250    1.4595E-21
  54388.320   -1.2352E-21
  54388.387   -4.2566E-23
  54388.457    3.1052E-22
  54388.523   -7.0256E-22
  54388.594   -2.0323E-21
  54388.664   -2.1890E-21
  54388.730   -1.4859E-21
  54388.801    4.9666E-22
  54388.867    1.3127E-21
  54388.938    1.3596E-21
  54389.008    8.8467E-22
  54389.074   -4.9194E-22
  54389.145    8.0409E-23
  54389.207    8.5991E-22
  54389.281    1.3510E-21
  54389.352    3.3461E-21
  54389.418    2.9036E-21
  54389.480    2.7413E-21
  54389.551    2.4145E-21
  54389.625    1.7207E-21
  54389.688    2.0727E-21
  54389.762    2.2400E-21
  54389.824    2.0556E-21
  54389.895    1.6593E-21
  54389.961    1.7088E-21
  54390.031    1.4449E-21
  54390.105    3.0339E-22
  54390.168    1.1421E-21
  54390.238    1.3705E-21
  54390.305    1.2553E-21
  54390.375    1.1873E-21
  54390.445    3.3287E-21
  54390.512    2.6650E-21
  54390.582    2.4065E-21
  54390.648    2.9821E-21
  54390.719    2.8516E-21
  54390.789    2.6392E-21
  54390.855    2.7029E-21
  54390.926    3.0114E-21
  54390.992    4.1871E-21
  54391.063    5.5191E-21
  54391.133    6.5804E-21
  54391.199    7.3813E-21
  54391.270    8.1046E-21
  54391.336    8.3847E-21
  54391.406    9.0044E-21
  54391.477    8.2101E-21
  54391.543    6.7931E-21
  54391.613    5.6431E-21
  54391.680    8.3505E-21
  54391.750    8.6546E-21
  54391.820    9.2518E-21
  54391.887    7.9371E-21
  54391.957    9.1462E-21
  54392.023    9.7564E-21
  54392.094    1.3501E-20
  54392.164    1.4554E-20
  54392.230    1.6200E-20
  54392.301    1.5864E-20
  54392.367    1.6484E-20
  54392.438    1.7706E-20
  54392.508    1.8191E-20
  54392.574    1.9342E-20
  54392.645    2.0374E-20
  54392.711    2.1636E-20
  54392.781    2.3150E-20
  54392.852    2.4410E-20
  54392.918    2.3654E-20
  54392.988    2.3150E-20
  54393.051    2.2896E-20
  54393.125    2.2776E-20
  54393.195    2.2057E-20
  54393.262    2.0854E-20
  54393.324    1.9551E-20
  54393.395    1.8674E-20
  54393.469    1.6791E-20
  54393.531    1.5292E-20
  54393.605    1.3451E-20
  54393.668    1.2029E-20
  54393.738    1.1020E-20
  54393.805    9.4404E-21
  54393.875    8.4080E-21
  54393.949    7.2029E-21
  54394.012    6.1599E-21
  54394.082    4.6484E-21
  54394.148    3.3169E-21
  54394.219    3.5864E-21
  54394.293    4.0770E-21
  54394.355    4.3457E-21
  54394.426    4.6984E-21
  54394.492    4.8737E-21
  54394.563    4.6068E-21
  54394.633    4.1131E-21
  54394.699    3.1253E-21
  54394.770    1.5483E-21
  54394.836    3.9425E-22
  54394.906    1.1222E-22
  54394.977    1.1025E-22
  54395.043   -9.1344E-23
  54395.113   -2.5794E-23
  54395.180    2.1785E-22
  54395.250   -2.0126E-22
  54395.320   -1.9049E-22
  54395.387    6.2495E-22
  54395.457    8.5716E-22
  54395.523    4.6643E-22
  54395.594    6.8989E-22
  54395.664    1.3261E-21
  54395.730    1.5049E-21
  54395.801    1.3631E-21
  54395.867    8.4213E-22
  54395.938   -4.2458E-22
  54396.008   -4.6388E-22
  54396.074    6.3065E-22
  54396.145    1.3486E-21
  54396.211    1.7508E-21
  54396.281    1.9458E-21
  54396.352    1.7333E-21
  54396.418    1.7882E-21
  54396.488    1.1743E-21
  54396.555    1.1416E-21
  54396.625    1.8467E-21
  54396.695    2.5377E-21
  54396.762    2.4823E-21
  54396.832    2.4306E-21
  54396.898    2.8717E-21
  54396.969    2.9380E-21
  54397.039    2.5678E-21
  54397.105    3.1900E-21
  54397.176    2.8915E-21
  54397.242    2.0903E-21
  54397.313    1.5371E-21
  54397.383    1.1740E-21
  54397.449    9.4428E-22
  54397.520    1.2088E-21
  54397.582    3.7800E-22
  54397.656   -1.0594E-21
  54397.727   -1.1901E-21
  54397.793   -2.3688E-22
  54397.855    5.3776E-22
  54397.926    9.6959E-22
  54398.000    1.1399E-21
  54398.063    7.2290E-22
  54398.137   -1.1204E-22
  54398.199   -1.7463E-22
  54398.270    4.1421E-22
  54398.336    8.5919E-22
  54398.406    1.4647E-21
  54398.480    1.5776E-21
  54398.543    6.6514E-22
  54398.613   -9.2122E-22
  54398.680   -2.2058E-21
  54398.750   -3.5778E-21
  54398.824   -3.7708E-21
  54398.887   -2.7629E-21
  54398.957   -1.8885E-21
  54399.023   -6.5295E-22
  54399.094    2.8369E-22
  54399.168    1.5324E-23
  54399.230    2.3642E-22
  54399.301    6.4880E-22
  54399.367    1.7547E-21
  54399.438    2.3263E-21
  54399.508    2.4188E-21
  54399.574    2.2647E-21
  54399.645    2.8111E-21
  54399.711    3.1123E-21
  54399.781    3.0684E-21
  54399.852    3.2671E-21
  54399.918    3.2486E-21
  54399.988    3.0449E-21
  54400.055    2.7169E-21
  54400.125    2.3297E-21
  54400.195    2.0433E-21
  54400.262    1.3766E-21
  54400.332    7.5405E-22
  54400.398    4.8773E-22
  54400.469    9.2138E-22
  54400.539    1.4969E-21
  54400.605    1.4324E-21
  54400.676    6.5470E-22
  54400.742   -3.7965E-22
  54400.813   -6.1821E-22
  54400.883   -5.7570E-23
  54400.949    8.6157E-22
  54401.020    2.0582E-21
  54401.086    2.7334E-21
  54401.156    2.6042E-21
  54401.227    1.7727E-21
  54401.293    1.3623E-21
  54401.363    1.1508E-21
  54401.430    3.4755E-22
  54401.500   -9.2500E-23
  54401.570    3.8562E-22
  54401.637    1.0949E-21
  54401.707    2.2550E-21
  54401.773    2.9100E-21
  54401.844    2.3198E-21
  54401.914    1.8843E-21
  54401.980    2.0122E-21
  54402.051    1.7993E-21
  54402.117    1.6795E-21
  54402.188    1.8315E-21
  54402.258    1.3262E-21
  54402.324    5.1888E-22
  54402.395    3.5356E-22
  54402.461    3.8410E-22
  54402.531   -3.0889E-22
  54402.602   -1.2742E-21
  54402.668   -7.3886E-22
  54402.738    1.0272E-22
  54402.801    1.2752E-21
  54402.875    9.6977E-22
  54402.945    1.1975E-21
  54403.012    3.1919E-21
  54403.074    4.2628E-21
  54403.145    4.1975E-21
  54403.219    2.6140E-21
  54403.281    5.8329E-21
  54403.355    4.7064E-21
  54403.418    6.0787E-22
  54403.488    5.8515E-22
  54403.563   -1.1550E-22
  54403.625    1.3293E-21
  54403.699    9.8086E-23
  54403.762    7.7344E-22
  54403.832    1.4136E-21
  54403.898    3.1122E-21
  54403.969    5.3315E-21
  54404.043    6.8935E-21
  54404.105    7.3674E-21
  54404.176    5.8930E-21
  54404.242    3.6124E-21
  54404.313    5.9738E-21
  54404.387    5.1290E-21
  54404.449    3.4166E-21
  54404.520    4.3922E-21
  54404.586    4.4486E-21
  54404.656    5.0116E-21
  54404.727    4.8813E-21
  54404.793    3.4375E-21
  54404.863    3.0267E-21
  54404.930    2.1848E-21
  54405.000    1.5509E-21
  54405.070    1.9320E-21
  54405.137    3.4122E-21
  54405.207    4.0896E-21
  54405.273    4.2066E-21
  54405.344    4.4147E-21
  54405.414    5.7110E-21
  54405.480    7.1265E-21
  54405.551    8.0045E-21
  54405.617    8.9388E-21
  54405.688    1.0665E-20
  54405.758    1.3374E-20
  54405.824    1.5397E-20
  54405.895    1.5967E-20
  54405.961    1.6175E-20
  54406.031    1.5999E-20
  54406.102    1.6141E-20
  54406.168    1.6382E-20
  54406.238    1.6698E-20
  54406.305    1.6947E-20
  54406.375    1.7497E-20
  54406.445    1.7126E-20
  54406.512    1.6894E-20
  54406.582    1.7110E-20
  54406.648    1.5917E-20
  54406.719    1.2759E-20
  54406.789    1.1401E-20
  54406.855    1.0382E-20
  54406.926    1.2477E-20
  54406.992    1.2440E-20
  54407.063    1.1810E-20
  54407.133    1.0380E-20
  54407.199    1.0152E-20
  54407.270    7.7082E-21
  54407.336    5.5536E-21
  54407.406    4.6601E-21
  54407.477    4.5992E-21
  54407.543    4.4651E-21
  54407.613    3.9498E-21
  54407.680    3.9936E-21
  54407.750    4.4960E-21
  54407.820    4.2711E-21
  54407.887    3.7385E-21
  54407.957    3.6449E-21
  54408.023    3.4115E-21
  54408.094    3.1487E-21
  54408.164    3.5608E-21
  54408.230    4.1478E-21
  54408.301    3.7751E-21
  54408.367    3.2367E-21
  54408.438    2.4250E-21
  54408.508    1.7590E-21
  54408.574    1.7392E-21
  54408.645    1.1815E-21
  54408.711    1.9399E-21
  54408.781    3.2157E-21
  54408.852    3.8878E-21
  54408.918    4.2335E-21
  54408.988    3.4007E-21
  54409.051    2.7388E-21
  54409.125    2.3538E-21
  54409.195    2.3294E-21
  54409.262    1.9699E-21
  54409.324    1.8014E-21
  54409.395    2.1960E-21
  54409.469    2.7574E-21
  54409.539    3.1096E-21
  54409.605    3.3169E-21
  54409.668    3.9471E-21
  54409.738    4.7107E-21
  54409.813    4.8391E-21
  54409.875    5.2017E-21
  54409.949    4.9896E-21
  54410.012    4.1804E-21
  54410.082    4.1435E-21
  54410.156    4.5942E-21
  54410.219    5.2593E-21
  54410.293    5.2804E-21
  54410.355    6.0256E-21
  54410.426    5.8996E-21
  54410.492    5.2200E-21
  54410.563    4.4067E-21
  54410.637    4.0903E-21
  54410.699    3.8470E-21
  54410.770    4.1564E-21
  54410.836    3.7550E-21
  54410.906    4.5293E-21
  54410.980    5.7964E-21
  54411.043    8.3886E-21
  54411.113    1.0896E-20
  54411.180    1.2885E-20
  54411.250    1.5968E-20
  54411.324    1.9605E-20
  54411.387    2.2846E-20
  54411.457    2.6144E-20
  54411.523    3.0502E-20
  54411.594    3.3706E-20
  54411.664    3.6166E-20
  54411.730    3.7268E-20
  54411.801    3.7517E-20
  54411.867    3.7800E-20
  54411.938    3.7083E-20
  54412.008    3.5793E-20
  54412.074    3.5299E-20
  54412.145    3.4088E-20
  54412.211    3.2629E-20
  54412.281    3.1097E-20
  54412.352    2.9698E-20
  54412.418    2.7865E-20
  54412.488    2.5832E-20
  54412.555    2.4392E-20
  54412.625    2.1365E-20
  54412.695    1.9238E-20
  54412.762    1.7536E-20
  54412.832    1.6590E-20
  54412.898    1.5076E-20
  54412.969    1.4696E-20
  54413.039    1.3353E-20
  54413.105    1.3135E-20
  54413.176    1.1367E-20
  54413.242    1.1400E-20
  54413.313    1.0646E-20
  54413.383    9.8439E-21
  54413.449    9.7736E-21
  54413.520    9.6479E-21
  54413.586    8.6416E-21
  54413.656    7.6954E-21
  54413.727    8.4524E-21
  54413.793    7.5062E-21
  54413.863    6.5600E-21
  54413.930    5.6138E-21
  54414.000    5.9924E-21
  54414.070    6.7492E-21
  54414.137    6.5600E-21
  54414.207    5.6138E-21
  54414.273    4.4594E-21
  54414.344    4.1000E-21
  54414.414    5.0462E-21
  54414.480    5.6138E-21
  54414.551    6.2329E-21
  54414.617    5.6138E-21
  54414.688    5.0462E-21
  54414.758    5.2354E-21
  54414.824    5.6138E-21
  54414.895    5.0462E-21
  54414.961    4.1000E-21
  54415.031    3.7216E-21
  54415.102    4.4784E-21
  54415.168    4.1000E-21
  54415.238    2.9646E-21
  54415.305    2.2076E-21
  54415.375    1.6400E-21
  54415.445    1.4508E-21
  54415.512    2.0184E-21
  54415.582    2.5862E-21
  54415.648    1.0228E-21
  54415.719    9.5324E-22
  54415.789    1.0863E-22
  54415.855   -4.6163E-22
  54415.926    2.1939E-22
  54415.992    3.0936E-22
  54416.063    1.0263E-21
  54416.133    1.1239E-21
  54416.199    5.7901E-22
  54416.270    7.4015E-22
  54416.336    1.0970E-21
  54416.406    1.0697E-21
  54416.477    8.8859E-22
  54416.543    2.1190E-21
  54416.613    1.9943E-21
  54416.680    1.5826E-21
  54416.750    8.7694E-22
  54416.820    9.1021E-22
  54416.887    8.0779E-23
  54416.957   -6.5666E-22
  54417.023   -6.2797E-22
  54417.094   -5.9328E-22
  54417.164   -5.4228E-22
  54417.230   -5.3192E-22
  54417.301   -4.2210E-22
  54417.367   -5.6227E-22
  54417.438   -5.1684E-22
  54417.508   -5.7791E-22
  54417.574   -3.4692E-22
  54417.645   -5.3616E-22
  54417.711    5.2118E-23
  54417.781    6.3949E-22
  54417.852    4.1156E-22
  54417.918    1.2650E-21
  54417.988    4.6934E-22
  54418.051    9.4616E-23
  54418.125   -9.4616E-23
  54418.195    4.1000E-22
  54418.262    4.7308E-22
  54418.332    6.6230E-22
  54418.395    2.8384E-22
  54418.469    4.7308E-22
  54418.539    7.8846E-22
  54418.605    9.7770E-22
  54418.668    9.1462E-22
  54418.738    5.9924E-22
  54418.813    4.1000E-22
  54418.883    9.7770E-22
  54418.949    1.2930E-21
  54419.012    1.7976E-21
  54419.082    1.9870E-21
  54419.156    1.9238E-21
  54419.227    2.1762E-21
  54419.293    2.4916E-21
  54419.355    2.6910E-21
  54419.426    3.3643E-21
  54419.500    3.1415E-21
  54419.563    1.8226E-21
  54419.637    1.8217E-21
  54419.699    3.0356E-21
  54419.770    3.2259E-21
  54419.844    2.7701E-21
  54419.906    2.4017E-21
  54419.980    2.9350E-21
  54420.043    3.2743E-21
  54420.113    3.8354E-21
  54420.180    3.4919E-21
  54420.250    1.5649E-21
  54420.324    1.4027E-21
  54420.387    1.8263E-21
  54420.457    1.3369E-21
  54420.523    2.3477E-22
  54420.594   -8.2416E-22
  54420.668   -5.9546E-22
  54420.730    2.9960E-22
  54420.801    9.8499E-22
  54420.867    9.0918E-22
  54420.938    1.2105E-22
  54421.012   -2.7137E-22
  54421.074   -3.7313E-22
  54421.145   -1.5229E-22
  54421.211    3.2373E-22
  54421.281    1.3318E-21
  54421.355    2.2217E-21
  54421.418    2.4236E-21
  54421.488    2.1238E-21
  54421.555    1.5050E-21
  54421.625    1.1746E-21
  54421.699    1.2267E-21
  54421.762    9.3077E-22
  54421.832    1.1187E-21
  54421.898    6.1066E-22
  54421.969    1.6945E-22
  54422.043    5.6947E-22
  54422.105    1.5107E-21
  54422.176    2.1434E-21
  54422.242    1.6121E-21
  54422.313    2.1747E-22
  54422.387   -3.6068E-22
  54422.449   -2.8875E-22
  54422.520    5.4315E-22
  54422.586    2.0965E-21
  54422.656    3.2452E-21
  54422.730    3.9349E-21
  54422.793    4.1877E-21
  54422.863    4.3138E-21
  54422.930    4.0097E-21
  54423.000    3.9659E-21
  54423.070    5.0476E-21
  54423.137    6.1209E-21
  54423.207    8.3013E-21
  54423.273    1.1026E-20
  54423.344    1.3209E-20
  54423.414    1.5898E-20
  54423.480    1.7601E-20
  54423.551    1.8689E-20
  54423.617    1.9562E-20
  54423.688    2.0062E-20
  54423.758    2.1227E-20
  54423.824    2.2167E-20
  54423.895    2.2833E-20
  54423.961    2.3236E-20
  54424.031    2.2685E-20
  54424.102    2.1523E-20
  54424.168    2.0915E-20
  54424.238    2.0319E-20
  54424.305    1.9284E-20
  54424.375    1.8116E-20
  54424.445    1.7589E-20
  54424.512    1.6764E-20
  54424.582    1.5492E-20
  54424.648    1.4007E-20
  54424.719    1.2481E-20
  54424.789    1.0957E-20
  54424.855    1.0563E-20
  54424.926    1.0046E-20
  54424.992    9.2196E-21
  54425.063    1.0882E-20
  54425.133    1.1135E-20
  54425.199    1.0616E-20
  54425.270    1.0074E-20
  54425.336    1.0407E-20
  54425.406    9.8958E-21
  54425.477    9.1772E-21
  54425.543    8.9145E-21
  54425.613    8.0424E-21
  54425.680    6.5577E-21
  54425.750    5.7301E-21
  54425.820    5.6157E-21
  54425.887    6.1787E-21
  54425.957    6.8975E-21
  54426.023    6.9637E-21
  54426.094    6.5773E-21
  54426.164    5.9819E-21
  54426.230    5.7713E-21
  54426.301    6.0647E-21
  54426.367    6.1058E-21
  54426.438    5.9172E-21
  54426.508    5.2726E-21
  54426.574    5.8297E-21
  54426.645    6.4922E-21
  54426.711    6.5563E-21
  54426.781    6.4621E-21
  54426.852    5.8474E-21
  54426.918    5.6531E-21
  54426.988    6.8444E-21
  54427.055    7.3130E-21
  54427.125    7.0828E-21
  54427.195    6.9040E-21
  54427.262    7.6058E-21
  54427.332    8.3193E-21
  54427.398    8.7944E-21
  54427.469    8.9623E-21
  54427.539    9.0731E-21
  54427.605    9.0291E-21
  54427.676    9.2855E-21
  54427.742    1.0072E-20
  54427.813    1.0426E-20
  54427.883    1.0544E-20
  54427.949    1.0798E-20
  54428.020    1.0975E-20
  54428.086    1.1118E-20
  54428.156    1.1762E-20
  54428.227    1.3060E-20
  54428.293    1.4536E-20
  54428.363    1.6293E-20
  54428.430    1.6651E-20
  54428.500    1.7826E-20
  54428.570    1.9757E-20
  54428.637    2.2451E-20
  54428.707    2.6855E-20
  54428.773    3.2150E-20
  54428.844    3.7365E-20
  54428.914    4.2919E-20
  54428.980    4.9791E-20
  54429.051    5.4753E-20
  54429.117    5.9669E-20
  54429.188    6.3503E-20
  54429.258    6.4758E-20
  54429.324    6.4617E-20
  54429.395    6.2854E-20
  54429.461    6.0101E-20
  54429.531    5.6561E-20
  54429.602    5.1416E-20
  54429.668    4.8952E-20
  54429.738    4.6143E-20
  54429.805    4.1687E-20
  54429.875    3.7795E-20
  54429.945    3.4589E-20
  54430.012    3.2136E-20
  54430.082    2.9296E-20
  54430.148    2.6161E-20
  54430.219    2.3872E-20
  54430.289    2.1305E-20
  54430.355    1.8539E-20
  54430.426    1.7135E-20
  54430.492    1.6286E-20
  54430.563    1.5128E-20
  54430.633    1.3804E-20
  54430.699    1.2316E-20
  54430.770    1.0745E-20
  54430.836    9.9130E-21
  54430.906    8.6774E-21
  54430.977    7.9825E-21
  54431.043    7.8653E-21
  54431.113    7.6376E-21
  54431.180    6.1175E-21
  54431.250    4.7782E-21
  54431.320    3.9220E-21
  54431.387    3.8335E-21
  54431.457    3.6210E-21
  54431.523    3.1292E-21
  54431.594    2.7277E-21
  54431.664    1.9805E-21
  54431.730    1.5366E-21
  54431.801    1.3558E-21
  54431.867    1.7888E-21
  54431.938    2.2217E-21
  54432.008    2.7075E-21
  54432.074    4.0454E-21
  54432.145    5.0137E-21
  54432.211    4.8621E-21
  54432.281    5.0061E-21
  54432.352    4.6530E-21
  54432.418    4.2433E-21
  54432.488    3.2346E-21
  54432.555    2.0825E-21
  54432.625    2.2529E-21
  54432.695    3.4600E-21
  54432.762    4.4365E-21
  54432.832    5.1417E-21
  54432.898    5.0126E-21
  54432.969    4.2810E-21
  54433.039    3.6152E-21
  54433.105    3.4249E-21
  54433.176    3.6031E-21
  54433.242    3.2003E-21
  54433.313    2.8700E-21
  54433.383    3.5268E-21
  54433.449    3.7247E-21
  54433.520    3.9771E-21
  54433.586    4.6250E-21
  54433.656    4.8957E-21
  54433.727    4.0621E-21
  54433.793    3.2678E-21
  54433.863    2.7254E-21
  54433.930    2.0741E-21
  54434.000    1.2205E-21
  54434.070    6.7263E-22
  54434.137    5.6550E-22
  54434.207    6.7131E-22
  54434.273    9.3765E-22
  54434.344    3.5288E-23
  54434.414   -7.0560E-22
  54434.480   -5.0489E-22
  54434.551    2.2402E-22
  54434.617    1.2130E-21
  54434.688    1.9504E-21
  54434.758    2.9029E-21
  54434.824    3.2712E-21
  54434.895    3.4478E-21
  54434.961    4.7368E-21
  54435.031    5.6766E-21
  54435.102    5.6290E-21
  54435.168    5.4671E-21
  54435.238    4.6863E-21
  54435.305    3.0674E-21
  54435.375    1.7984E-21
  54435.445    8.2437E-22
  54435.512    4.7689E-22
  54435.582    4.2286E-22
  54435.648    1.4301E-21
  54435.719    3.1231E-21
  54435.789    3.5942E-21
  54435.855    3.3713E-21
  54435.926    3.1205E-21
  54435.992    3.0341E-21
  54436.063    2.8678E-21
  54436.133    2.4833E-21
  54436.199    3.0020E-21
  54436.270    3.5180E-21
  54436.336    3.6924E-21
  54436.406    4.0003E-21
  54436.477    4.1746E-21
  54436.543    4.1640E-21
  54436.613    3.2756E-21
  54436.680    2.5073E-21
  54436.750    2.7973E-21
  54436.820    3.2120E-21
  54436.887    3.8523E-21
  54436.957    4.7465E-21
  54437.023    5.2839E-21
  54437.094    4.0338E-21
  54437.164    3.3609E-21
  54437.230    3.0742E-21
  54437.301    2.8747E-21
  54437.367    2.8460E-21
  54437.438    2.5402E-21
  54437.508    2.5493E-21
  54437.574    2.7307E-21
  54437.645    2.5279E-21
  54437.711    2.3418E-21
  54437.781    3.4121E-21
  54437.852    3.9412E-21
  54437.918    4.2212E-21
  54437.988    4.0992E-21
  54438.055    3.2174E-21
  54438.125    2.8280E-21
  54438.195    3.2063E-21
  54438.262    3.5500E-21
  54438.332    4.1251E-21
  54438.398    5.2180E-21
  54438.469    4.8485E-21
  54438.539    5.1914E-21
  54438.605    5.7152E-21
  54438.676    5.5158E-21
  54438.742    5.6763E-21
  54438.813    5.8067E-21
  54438.883    6.1747E-21
  54438.949    7.4176E-21
  54439.020    7.7446E-21
  54439.086    7.1338E-21
  54439.156    6.7264E-21
  54439.227    6.0344E-21
  54439.293    6.2859E-21
  54439.363    8.1312E-21
  54439.430    1.0133E-20
  54439.500    1.2964E-20
  54439.570    1.6111E-20
  54439.637    1.8829E-20
  54439.707    2.1810E-20
  54439.773    2.5020E-20
  54439.844    2.8670E-20
  54439.914    3.2716E-20
  54439.980    3.5889E-20
  54440.051    3.9298E-20
  54440.117    4.1808E-20
  54440.188    4.3143E-20
  54440.262    4.3571E-20
  54440.324    4.3464E-20
  54440.395    4.2430E-20
  54440.461    4.1408E-20
  54440.531    4.0842E-20
  54440.605    3.9702E-20
  54440.668    3.7676E-20
  54440.738    3.5482E-20
  54440.805    3.3096E-20
  54440.875    3.0475E-20
  54440.949    2.8202E-20
  54441.012    2.5963E-20
  54441.082    2.3807E-20
  54441.148    2.1906E-20
  54441.219    1.9932E-20
  54441.293    1.7111E-20
  54441.355    1.4485E-20
  54441.426    1.2686E-20
  54441.492    1.1621E-20
  54441.563    1.1239E-20
  54441.637    1.0832E-20
  54441.699    1.0459E-20
  54441.770    1.0034E-20
  54441.836    9.1645E-21
  54441.906    7.6502E-21
  54441.980    6.5968E-21
  54442.043    6.8839E-21
  54442.113    7.2205E-21
  54442.180    7.8298E-21
  54442.250    7.4647E-21
  54442.324    6.3389E-21
  54442.387    4.6198E-21
  54442.457    2.9202E-21
  54442.523    2.3254E-21
  54442.594    3.7646E-21
  54442.668    5.6294E-21
  54442.730    7.2811E-21
  54442.801    8.1841E-21
  54442.867    7.8716E-21
  54442.938    7.6123E-21
  54443.012    6.7058E-21
  54443.074    6.6391E-21
  54443.145    7.2813E-21
  54443.211    7.8135E-21
  54443.281    8.3648E-21
  54443.355    8.5923E-21
  54443.418    8.9249E-21
  54443.488    9.6430E-21
  54443.563    1.0843E-20
  54443.625    1.1347E-20
  54443.699    1.1605E-20
  54443.762    1.1751E-20
  54443.832    1.1646E-20
  54443.906    1.2318E-20
  54443.977    1.3081E-20
  54444.043    1.4641E-20
  54444.105    1.6157E-20
  54444.176    1.8392E-20
  54444.250    2.1229E-20
  54444.320    2.4548E-20
  54444.387    2.9429E-20
  54444.449    3.4794E-20
  54444.520    4.0670E-20
  54444.594    4.6678E-20
  54444.664    5.6751E-20
  54444.730    6.4200E-20
  54444.793    7.3665E-20
  54444.863    8.2795E-20
  54444.938    8.8269E-20
  54445.008    9.1612E-20
  54445.074    9.3075E-20
  54445.145    9.3210E-20
  54445.207    9.0766E-20
  54445.281    8.7196E-20
  54445.352    8.3093E-20
  54445.418    7.9779E-20
  54445.488    7.5803E-20
  54445.555    7.3777E-20
  54445.625    6.8392E-20
  54445.695    6.2942E-20
  54445.762    5.6498E-20
  54445.832    4.9073E-20
  54445.898    4.4217E-20
  54445.969    3.9031E-20
  54446.039    3.5168E-20
  54446.105    3.1322E-20
  54446.176    2.7420E-20
  54446.242    2.3798E-20
  54446.313    2.1111E-20
  54446.383    1.8984E-20
  54446.449    1.7761E-20
  54446.520    1.7784E-20
  54446.586    1.7850E-20
  54446.656    1.7400E-20
  54446.727    1.6317E-20
  54446.793    1.4812E-20
  54446.863    1.3442E-20
  54446.930    1.2464E-20
  54447.000    1.1996E-20
  54447.070    1.1709E-20
  54447.137    1.0928E-20
  54447.207    1.0298E-20
  54447.273    1.0382E-20
  54447.344    1.0114E-20
  54447.414    9.1530E-21
  54447.480    7.3317E-21
  54447.551    6.7593E-21
  54447.617    7.1510E-21
  54447.688    6.9971E-21
  54447.758    6.5119E-21
  54447.824    6.1681E-21
  54447.895    6.2441E-21
  54447.961    6.6392E-21
  54448.031    6.8319E-21
  54448.102    7.0299E-21
  54448.168    7.2110E-21
  54448.238    6.9369E-21
  54448.305    6.4881E-21
  54448.375    5.4806E-21
  54448.445    4.9727E-21
  54448.512    4.9813E-21
  54448.582    5.1360E-21
  54448.648    5.4790E-21
  54448.719    5.6783E-21
  54448.789    6.7668E-21
  54448.855    7.8110E-21
  54448.926    7.9113E-21
  54448.992    8.0344E-21
  54449.063    7.3831E-21
  54449.133    6.1007E-21
  54449.199    5.0377E-21
  54449.270    4.6952E-21
  54449.336    5.0504E-21
  54449.406    5.7269E-21
  54449.477    5.7313E-21
  54449.543    5.1077E-21
  54449.613    4.8157E-21
  54449.680    4.5539E-21
  54449.750    4.3500E-21
  54449.820    5.4588E-21
  54449.887    5.9216E-21
  54449.957    5.3976E-21
  54450.023    4.8618E-21
  54450.094    5.6528E-21
  54450.164    6.2049E-21
  54450.230    5.8931E-21
  54450.301    5.0130E-21
  54450.367    4.4483E-21
  54450.438    4.1854E-21
  54450.508    4.0496E-21
  54450.574    4.2076E-21
  54450.645    4.5121E-21
  54450.711    4.9502E-21
  54450.781    5.2625E-21
  54450.852    5.4729E-21
  54450.918    5.4915E-21
  54450.988    4.9872E-21
  54451.055    4.1399E-21
  54451.125    3.9596E-21
  54451.195    3.7788E-21
  54451.262    3.6126E-21
  54451.332    3.5496E-21
  54451.398    2.7409E-21
  54451.469    2.3123E-21
  54451.539    2.2805E-21
  54451.605    1.9897E-21
  54451.676    2.7957E-21
  54451.742    3.9357E-21
  54451.813    4.8530E-21
  54451.887    5.2702E-21
  54451.949    5.3659E-21
  54452.020    6.0247E-21
  54452.086    6.4948E-21
  54452.156    6.1850E-21
  54452.230    5.6611E-21
  54452.293    5.4324E-21
  54452.363    4.4477E-21
  54452.430    4.1652E-21
  54452.500    3.9132E-21
  54452.574    3.4007E-21
  54452.637    2.9318E-21
  54452.707    2.3653E-21
  54452.773    2.5026E-21
  54452.844    3.1469E-21
  54452.918    3.8593E-21
  54452.980    5.7389E-21
  54453.051    6.9724E-21
  54453.125    7.8020E-21
  54453.188    8.3689E-21
  54453.262    8.8283E-21
  54453.324    9.0164E-21
  54453.395    9.0920E-21
  54453.469    1.0112E-20
  54453.539    1.0566E-20
  54453.605    1.0548E-20
  54453.668    1.0510E-20
  54453.738    1.0686E-20
  54453.813    1.1092E-20
  54453.883    1.1089E-20
  54453.949    1.1350E-20
  54454.012    1.3373E-20
  54454.082    1.4511E-20
  54454.156    1.6002E-20
  54454.227    1.7141E-20
  54454.293    1.8282E-20
  54454.363    2.0768E-20
  54454.430    2.3634E-20
  54454.500    2.6806E-20
  54454.570    3.0355E-20
  54454.637    3.4796E-20
  54454.707    4.0527E-20
  54454.773    4.7733E-20
  54454.844    5.2307E-20
  54454.914    5.8015E-20
  54454.980    6.2430E-20
  54455.051    6.4814E-20
  54455.117    6.5288E-20
  54455.188    6.4110E-20
  54455.258    6.2767E-20
  54455.324    6.2390E-20
  54455.395    6.1585E-20
  54455.461    5.8752E-20
  54455.531    5.5640E-20
  54455.602    5.2222E-20
  54455.668    5.0175E-20
  54455.738    4.9265E-20
  54455.805    4.7521E-20
  54455.875    4.4620E-20
  54455.945    4.1339E-20
  54456.012    3.7553E-20
  54456.082    3.3111E-20
  54456.148    2.8900E-20
  54456.219    2.5966E-20
  54456.289    2.4975E-20
  54456.355    2.3837E-20
  54456.426    2.2036E-20
  54456.492    2.0548E-20
  54456.563    1.9084E-20
  54456.633    1.7150E-20
  54456.699    1.4551E-20
  54456.770    1.2277E-20
  54456.836    1.0212E-20
  54456.906    9.9611E-21
  54456.977    1.1219E-20
  54457.043    1.1911E-20
  54457.113    1.2300E-20
  54457.180    1.2079E-20
  54457.250    1.1000E-20
  54457.320    9.7039E-21
  54457.387    9.5887E-21
  54457.457    1.0610E-20
  54457.523    1.1513E-20
  54457.594    1.2263E-20
  54457.664    1.2228E-20
  54457.730    1.1428E-20
  54457.801    1.1628E-20
  54457.867    1.2650E-20
  54457.938    1.3384E-20
  54458.008    1.4363E-20
  54458.074    1.5374E-20
  54458.145    1.6155E-20
  54458.211    1.7164E-20
  54458.281    1.8038E-20
  54458.352    1.9666E-20
  54458.418    2.2849E-20
  54458.488    2.6062E-20
  54458.555    3.1158E-20
  54458.625    3.6549E-20
  54458.699    4.1219E-20
  54458.762    4.6309E-20
  54458.832    5.6388E-20
  54458.898    6.4630E-20
  54458.969    7.4451E-20
  54459.043    8.9315E-20
  54459.105    1.0059E-19
  54459.176    1.1148E-19
  54459.242    1.2052E-19
  54459.313    1.2789E-19
  54459.387    1.3209E-19
  54459.449    1.3341E-19
  54459.520    1.3286E-19
  54459.586    1.3063E-19
  54459.656    1.2590E-19
  54459.730    1.1898E-19
  54459.793    1.1130E-19
  54459.863    1.0293E-19
  54459.938    9.2542E-20
  54460.008    8.3687E-20
  54460.074    7.4703E-20
  54460.137    6.7147E-20
  54460.207    5.8193E-20
  54460.281    5.3432E-20
  54460.352    4.7661E-20
  54460.418    4.2434E-20
  54460.488    3.9009E-20
  54460.551    3.5570E-20
  54460.625    3.1726E-20
  54460.695    2.8865E-20
  54460.762    2.5766E-20
  54460.832    2.2329E-20
  54460.898    1.9874E-20
  54460.969    1.8337E-20
  54461.039    1.6702E-20
  54461.105    1.4977E-20
  54461.176    1.3869E-20
  54461.242    1.3144E-20
  54461.313    1.2356E-20
  54461.383    1.1056E-20
  54461.449    9.4791E-21
  54461.520    8.4681E-21
  54461.586    7.3626E-21
  54461.656    7.4817E-21
  54461.727    8.1237E-21
  54461.793    9.0121E-21
  54461.863    9.7657E-21
  54461.930    1.0107E-20
  54462.000    9.8455E-21
  54462.070    9.2760E-21
  54462.137    8.9024E-21
  54462.207    9.1523E-21
  54462.273    9.5438E-21
  54462.344    9.7373E-21
  54462.414    9.8835E-21
  54462.480    8.0698E-21
  54462.551    5.9474E-21
  54462.617    4.4219E-21
  54462.688    3.7766E-21
  54462.758    4.5007E-21
  54462.824    6.2403E-21
  54462.895    7.5214E-21
  54462.961    7.3940E-21
  54463.031    7.2006E-21
  54463.102    6.3960E-21
  54463.168    6.6026E-21
  54463.238    6.7901E-21
  54463.305    6.8149E-21
  54463.375    7.1108E-21
  54463.445    7.3171E-21
  54463.512    7.2188E-21
  54463.582    7.2517E-21
  54463.648    7.5932E-21
  54463.719    7.0633E-21
  54463.789    5.9187E-21
  54463.855    4.2351E-21
  54463.926    2.5144E-21
  54463.992    1.8181E-21
  54464.063    1.6675E-21
  54464.137    2.3616E-21
  54464.199    3.6788E-21
  54464.270    4.6851E-21
  54464.336    4.5893E-21
  54464.406    3.6880E-21
  54464.480    2.9883E-21
  54464.543    2.3462E-21
  54464.613    1.9981E-21
  54464.680    2.2156E-21
  54464.750    2.9136E-21
  54464.824    3.5124E-21
  54464.887    4.1192E-21
  54464.957    4.5397E-21
  54465.031    4.8372E-21
  54465.094    4.4840E-21
  54465.168    3.6656E-21
  54465.230    4.3035E-21
  54465.301    5.2285E-21
  54465.375    5.8720E-21
  54465.445    5.8940E-21
  54465.512    5.7703E-21
  54465.574    5.1515E-21
  54465.645    4.4794E-21
  54465.719    4.6141E-21
  54465.789    5.1026E-21
  54465.855    5.6138E-21
  54465.926    6.4846E-21
  54465.992    7.8266E-21
  54466.063    8.3139E-21
  54466.133    8.7863E-21
  54466.199    9.4942E-21
  54466.270    1.0076E-20
  54466.336    9.8887E-21
  54466.406    9.4411E-21
  54466.477    8.9600E-21
  54466.543    9.0572E-21
  54466.613    9.8278E-21
  54466.680    1.0512E-20
  54466.750    1.1021E-20
  54466.820    1.1715E-20
  54466.887    1.2364E-20
  54466.957    1.1813E-20
  54467.023    1.0561E-20
  54467.094    1.0554E-20
  54467.164    1.1249E-20
  54467.230    1.2551E-20
  54467.301    1.4521E-20
  54467.367    1.6577E-20
  54467.438    1.8785E-20
  54467.508    1.9625E-20
  54467.574    2.0367E-20
  54467.645    2.2360E-20
  54467.711    2.4249E-20
  54467.781    2.7089E-20
  54467.852    2.9858E-20
  54467.918    3.2774E-20
  54467.988    3.7561E-20
  54468.055    4.3704E-20
  54468.125    5.3108E-20
  54468.195    6.1081E-20
  54468.262    7.1419E-20
  54468.332    8.3242E-20
  54468.398    9.0822E-20
  54468.469    9.7019E-20
  54468.539    1.0136E-19
  54468.605    1.0302E-19
  54468.676    1.0225E-19
  54468.742    9.9945E-20
  54468.813    9.7019E-20
  54468.887    9.3809E-20
  54468.949    8.9711E-20
  54469.020    8.4987E-20
  54469.086    7.9820E-20
  54469.156    7.4428E-20
  54469.230    6.8585E-20
  54469.293    6.3307E-20
  54469.363    5.8435E-20
  54469.430    5.4010E-20
  54469.500    4.9200E-20
  54469.574    4.4718E-20
  54469.637    4.0944E-20
  54469.707    3.7800E-20
  54469.781    3.3754E-20
  54469.852    3.1020E-20
  54469.918    2.9680E-20
  54469.980    2.8444E-20
  54470.051    2.7436E-20
  54470.125    2.5865E-20
  54470.195    2.4551E-20
  54470.262    2.3184E-20
  54470.332    2.1814E-20
  54470.398    1.9684E-20
  54470.469    1.8762E-20
  54470.539    1.8738E-20
  54470.605    1.8825E-20
  54470.676    1.8843E-20
  54470.742    1.8254E-20
  54470.813    1.8467E-20
  54470.883    2.0133E-20
  54470.949    2.2125E-20
  54471.020    2.3789E-20
  54471.086    2.4383E-20
  54471.156    2.5327E-20
  54471.227    2.5908E-20
  54471.293    2.6925E-20
  54471.363    2.8294E-20
  54471.430    3.0505E-20
  54471.500    3.3386E-20
  54471.570    3.6183E-20
  54471.637    3.8860E-20
  54471.707    4.3240E-20
  54471.773    5.0219E-20
  54471.844    5.9121E-20
  54471.914    6.7509E-20
  54471.980    8.2464E-20
  54472.051    9.4823E-20
  54472.117    1.0783E-19
  54472.188    1.2282E-19
  54472.258    1.3700E-19
  54472.324    1.4955E-19
  54472.395    1.5982E-19
  54472.461    1.6673E-19
  54472.531    1.7009E-19
  54472.602    1.7068E-19
  54472.668    1.6784E-19
  54472.738    1.6233E-19
  54472.805    1.5492E-19
  54472.875    1.4570E-19
  54472.949    1.3450E-19
  54473.012    1.2180E-19
  54473.082    1.0946E-19
  54473.148    9.8746E-20
  54473.219    8.5897E-20
  54473.293    7.6113E-20
  54473.355    6.4761E-20
  54473.426    5.7479E-20
  54473.492    4.8317E-20
  54473.563    4.3110E-20
  54473.637    3.9016E-20
  54473.699    3.6005E-20
  54473.770    3.2610E-20
  54473.844    3.0034E-20
  54473.914    2.7733E-20
  54473.980    2.4464E-20
  54474.043    2.1566E-20
  54474.113    1.9738E-20
  54474.188    1.7984E-20
  54474.258    1.7278E-20
  54474.324    1.6155E-20
  54474.395    1.5426E-20
  54474.461    1.5042E-20
  54474.531    1.4746E-20
  54474.602    1.4884E-20
  54474.668    1.4870E-20
  54474.738    1.4204E-20
  54474.805    1.3834E-20
  54474.875    1.2780E-20
  54474.945    1.1411E-20
  54475.012    1.0777E-20
  54475.082    1.0177E-20
  54475.148    9.7982E-21
  54475.219    9.1950E-21
  54475.289    7.9605E-21
  54475.355    6.6935E-21
  54475.426    5.5621E-21
  54475.492    5.0014E-21
  54475.563    5.3886E-21
  54475.633    6.2411E-21
  54475.699    6.6990E-21
  54475.770    5.8769E-21
  54475.836    5.2686E-21
  54475.906    4.4001E-21
  54475.977    3.9574E-21
  54476.043    3.9112E-21
  54476.113    4.5277E-21
  54476.180    5.3753E-21
  54476.250    4.8745E-21
  54476.320    4.0020E-21
  54476.387    4.1518E-21
  54476.457    4.3606E-21
  54476.523    4.1693E-21
  54476.594    3.3600E-21
  54476.664    3.3709E-21
  54476.730    3.8492E-21
  54476.801    4.6496E-21
  54476.867    5.4251E-21
  54476.938    5.8963E-21
  54477.012    6.7394E-21
  54477.074    7.4077E-21
  54477.145    7.3281E-21
  54477.211    6.6109E-21
  54477.281    6.0867E-21
  54477.355    6.0407E-21
  54477.418    5.4576E-21
  54477.488    5.1187E-21
  54477.563    5.1247E-21
  54477.633    4.6278E-21
  54477.699    4.8861E-21
  54477.762    5.4972E-21
  54477.832    6.8730E-21
  54477.906    8.1117E-21
  54477.977    7.8758E-21
  54478.043    6.8849E-21
  54478.113    6.4111E-21
  54478.180    6.2584E-21
  54478.250    6.0341E-21
  54478.320    6.4547E-21
  54478.387    7.5073E-21
  54478.457    9.0484E-21
  54478.523    1.0929E-20
  54478.594    1.2538E-20
  54478.664    1.3498E-20
  54478.730    1.2610E-20
  54478.801    1.1927E-20
  54478.867    1.2209E-20
  54478.938    1.2531E-20
  54479.008    1.3613E-20
  54479.074    1.4337E-20
  54479.145    1.4899E-20
  54479.211    1.6138E-20
  54479.281    1.8056E-20
  54479.352    2.0101E-20
  54479.418    2.2751E-20
  54479.488    2.4979E-20
  54479.555    2.6891E-20
  54479.625    2.9673E-20
  54479.695    3.3423E-20
  54479.762    3.8541E-20
  54479.832    4.4465E-20
  54479.898    5.1070E-20
  54479.969    6.0004E-20
  54480.039    6.9867E-20
  54480.105    8.2550E-20
  54480.176    9.4061E-20
  54480.242    1.0578E-19
  54480.313    1.1648E-19
  54480.387    1.2661E-19
  54480.449    1.3481E-19
  54480.520    1.4085E-19
  54480.586    1.4441E-19
  54480.656    1.4546E-19
  54480.730    1.4394E-19
  54480.793    1.3983E-19
  54480.863    1.3418E-19
  54480.938    1.2710E-19
  54481.008    1.1906E-19
  54481.074    1.1089E-19
  54481.137    1.0377E-19
  54481.207    9.7704E-20
  54481.281    8.9962E-20
  54481.352    8.4316E-20
  54481.418    7.7928E-20
  54481.488    7.0733E-20
  54481.555    6.4184E-20
  54481.625    5.8503E-20
  54481.695    5.3183E-20
  54481.762    4.5866E-20
  54481.832    4.3185E-20
  54481.898    4.1251E-20
  54481.969    3.8749E-20
  54482.039    3.6067E-20
  54482.105    3.3487E-20
  54482.176    3.1566E-20
  54482.242    3.0900E-20
  54482.313    3.1291E-20
  54482.383    3.2077E-20
  54482.449    3.2879E-20
  54482.520    3.2935E-20
  54482.586    3.2988E-20
  54482.656    3.3532E-20
  54482.727    3.3699E-20
  54482.793    3.4641E-20
  54482.863    3.6481E-20
  54482.930    3.8821E-20
  54483.000    4.1475E-20
  54483.070    4.4051E-20
  54483.137    4.8192E-20
  54483.207    5.5313E-20
  54483.273    6.2694E-20
  54483.344    7.0942E-20
  54483.414    8.1893E-20
  54483.480    9.3191E-20
  54483.551    1.0729E-19
  54483.617    1.2228E-19
  54483.688    1.3853E-19
  54483.762    1.5538E-19
  54483.824    1.7113E-19
  54483.895    1.8555E-19
  54483.961    1.9731E-19
  54484.031    2.0598E-19
  54484.105    2.0906E-19
  54484.168    2.0811E-19
  54484.238    2.0308E-19
  54484.313    1.9440E-19
  54484.383    1.8292E-19
  54484.449    1.7102E-19
  54484.520    1.5856E-19
  54484.586    1.4503E-19
  54484.656    1.3104E-19
  54484.727    1.1710E-19
  54484.793    1.0465E-19
  54484.863    9.3913E-20
  54484.930    7.7840E-20
  54485.000    6.9968E-20
  54485.070    5.7018E-20
  54485.137    4.8093E-20
  54485.207    4.3876E-20
  54485.273    4.0468E-20
  54485.344    3.7274E-20
  54485.414    3.5523E-20
  54485.480    3.3542E-20
  54485.551    3.1197E-20
  54485.617    2.8978E-20
  54485.688    2.6928E-20
  54485.758    2.5169E-20
  54485.824    2.2841E-20
  54485.895    2.0439E-20
  54485.961    1.8917E-20
  54486.031    1.8197E-20
  54486.102    1.7795E-20
  54486.168    1.6835E-20
  54486.238    1.6453E-20
  54486.305    1.6621E-20
  54486.375    1.6513E-20
  54486.445    1.6330E-20
  54486.512    1.5302E-20
  54486.582    1.4191E-20
  54486.648    1.3227E-20
  54486.719    1.1783E-20
  54486.793    1.0138E-20
  54486.855    9.1461E-21
  54486.926    9.2666E-21
  54486.992    9.9756E-21
  54487.063    1.1516E-20
  54487.137    1.3216E-20
  54487.199    1.3161E-20
  54487.270    1.1891E-20
  54487.344    1.0817E-20
  54487.414    1.0337E-20
  54487.480    9.7365E-21
  54487.551    9.6018E-21
  54487.617    1.0105E-20
  54487.688    1.0856E-20
  54487.758    1.1346E-20
  54487.824    1.2260E-20
  54487.895    1.2826E-20
  54487.961    1.2903E-20
  54488.031    1.1572E-20
  54488.102    1.0533E-20
  54488.168    1.0377E-20
  54488.238    1.0449E-20
  54488.305    1.0242E-20
  54488.375    1.0398E-20
  54488.445    1.0505E-20
  54488.512    1.0339E-20
  54488.582    9.6520E-21
  54488.648    9.6624E-21
  54488.719    9.8386E-21
  54488.789    1.0603E-20
  54488.855    1.1632E-20
  54488.926    1.3748E-20
  54488.992    1.5584E-20
  54489.063    1.6365E-20
  54489.133    1.6828E-20
  54489.199    1.7079E-20
  54489.270    1.6903E-20
  54489.336    1.6448E-20
  54489.406    1.7468E-20
  54489.480    1.9379E-20
  54489.543    2.1584E-20
  54489.613    2.3466E-20
  54489.680    2.5131E-20
  54489.750    2.8062E-20
  54489.824    3.0206E-20
  54489.887    3.1489E-20
  54489.957    3.3492E-20
  54490.031    3.6439E-20
  54490.102    4.0446E-20
  54490.168    4.6534E-20
  54490.230    5.5796E-20
  54490.301    6.4042E-20
  54490.375    8.0055E-20
  54490.445    9.2616E-20
  54490.512    1.0505E-19
  54490.582    1.2068E-19
  54490.648    1.3810E-19
  54490.719    1.5575E-19
  54490.789    1.7088E-19
  54490.855    1.8238E-19
  54490.926    1.8916E-19
  54490.992    1.9175E-19
  54491.063    1.9056E-19
  54491.133    1.8582E-19
  54491.199    1.7911E-19
  54491.270    1.7058E-19
  54491.336    1.6043E-19
  54491.406    1.4956E-19
  54491.477    1.3852E-19
  54491.543    1.2786E-19
  54491.613    1.1856E-19
  54491.680    1.0863E-19
  54491.750    9.8551E-20
  54491.820    8.8805E-20
  54491.887    8.0329E-20
  54491.957    7.3094E-20
  54492.023    6.7757E-20
  54492.094    6.1812E-20
  54492.168    5.6897E-20
  54492.230    5.3289E-20
  54492.301    5.1859E-20
  54492.367    4.9773E-20
  54492.438    4.8312E-20
  54492.512    4.7696E-20
  54492.574    4.7680E-20
  54492.645    4.8296E-20
  54492.719    4.9911E-20
  54492.789    5.2450E-20
  54492.855    5.4763E-20
  54492.918    5.7950E-20
  54492.988    6.3067E-20
  54493.063    6.9558E-20
  54493.133    8.1668E-20
  54493.199    9.3208E-20
  54493.270    1.0375E-19
  54493.336    1.1774E-19
  54493.406    1.3303E-19
  54493.477    1.5015E-19
  54493.543    1.6904E-19
  54493.613    1.8882E-19
  54493.680    2.0563E-19
  54493.750    2.1869E-19
  54493.820    2.2695E-19
  54493.887    2.2937E-19
  54493.957    2.2689E-19
  54494.023    2.1988E-19
  54494.094    2.0950E-19
  54494.164    1.9752E-19
  54494.230    1.8361E-19
  54494.301    1.6917E-19
  54494.367    1.5465E-19
  54494.438    1.3926E-19
  54494.508    1.2524E-19
  54494.574    1.1256E-19
  54494.645    1.0043E-19
  54494.711    8.9426E-20
  54494.781    8.0455E-20
  54494.855    7.3407E-20
  54494.918    6.6738E-20
  54494.988    5.7926E-20
  54495.055    5.1389E-20
  54495.125    4.6438E-20
  54495.199    4.2454E-20
  54495.262    3.8406E-20
  54495.332    3.5230E-20
  54495.406    3.3297E-20
  54495.477    3.2580E-20
  54495.543    3.2331E-20
  54495.605    3.1243E-20
  54495.676    3.0550E-20
  54495.750    3.0384E-20
  54495.820    3.0348E-20
  54495.887    2.9250E-20
  54495.957    2.8108E-20
  54496.023    2.8218E-20
  54496.094    2.8423E-20
  54496.164    2.7984E-20
  54496.230    2.7371E-20
  54496.301    2.5792E-20
  54496.367    2.3836E-20
  54496.438    2.2219E-20
  54496.508    2.0658E-20
  54496.574    1.9514E-20
  54496.645    1.9257E-20
  54496.711    1.9646E-20
  54496.781    2.0308E-20
  54496.852    2.0347E-20
  54496.918    2.0169E-20
  54496.988    1.9744E-20
  54497.055    1.8798E-20
  54497.125    1.8093E-20
  54497.195    1.7561E-20
  54497.262    1.6673E-20
  54497.332    1.6476E-20
  54497.398    1.6802E-20
  54497.469    1.7332E-20
  54497.543    1.7587E-20
  54497.605    1.7409E-20
  54497.676    1.7836E-20
  54497.742    1.8279E-20
  54497.813    1.8087E-20
  54497.887    1.8823E-20
  54497.949    2.0052E-20
  54498.020    2.1058E-20
  54498.094    2.1963E-20
  54498.164    2.2464E-20
  54498.230    2.3089E-20
  54498.301    2.3523E-20
  54498.367    2.4577E-20
  54498.438    2.6930E-20
  54498.508    2.9009E-20
  54498.574    3.0942E-20
  54498.645    3.2213E-20
  54498.711    3.3370E-20
  54498.781    3.5211E-20
  54498.852    3.7619E-20
  54498.918    4.0642E-20
  54498.988    4.4040E-20
  54499.055    5.0346E-20
  54499.125    5.5178E-20
  54499.195    6.0409E-20
  54499.262    7.0470E-20
  54499.332    8.4923E-20
  54499.398    9.6753E-20
  54499.469    1.0934E-19
  54499.539    1.2429E-19
  54499.605    1.3980E-19
  54499.676    1.5750E-19
  54499.742    1.7535E-19
  54499.813    1.9262E-19
  54499.887    2.0840E-19
  54499.949    2.2040E-19
  54500.020    2.2962E-19
  54500.086    2.3492E-19
  54500.156    2.3566E-19
  54500.230    2.3296E-19
  54500.293    2.2643E-19
  54500.363    2.1739E-19
  54500.438    2.0598E-19
  54500.508    1.9348E-19
  54500.574    1.8028E-19
  54500.645    1.6634E-19
  54500.711    1.5274E-19
  54500.781    1.3989E-19
  54500.852    1.2717E-19
  54500.918    1.1547E-19
  54500.988    1.0551E-19
  54501.055    9.6842E-20
  54501.125    8.7439E-20
  54501.195    8.3035E-20
  54501.262    7.8372E-20
  54501.332    7.5855E-20
  54501.398    7.4923E-20
  54501.469    7.5853E-20
  54501.539    7.9293E-20
  54501.605    8.1565E-20
  54501.676    8.4729E-20
  54501.742    8.9766E-20
  54501.813    9.8688E-20
  54501.883    1.0887E-19
  54501.949    1.2096E-19
  54502.020    1.3437E-19
  54502.086    1.5052E-19
  54502.156    1.6873E-19
  54502.230    1.8734E-19
  54502.293    2.0489E-19
  54502.363    2.1969E-19
  54502.430    2.2997E-19
  54502.500    2.3593E-19
  54502.574    2.3852E-19
  54502.637    2.3809E-19
  54502.707    2.3315E-19
  54502.781    2.2625E-19
  54502.852    2.1589E-19
  54502.918    2.0387E-19
  54502.988    1.9012E-19
  54503.055    1.7621E-19
  54503.125    1.6283E-19
  54503.195    1.4963E-19
  54503.262    1.3612E-19
  54503.332    1.2145E-19
  54503.398    1.0719E-19
  54503.469    9.4638E-20
  54503.539    8.3845E-20
  54503.605    7.5332E-20
  54503.676    6.7744E-20
  54503.742    6.1502E-20
  54503.813    5.5194E-20
  54503.883    4.9833E-20
  54503.949    4.5948E-20
  54504.020    4.3623E-20
  54504.086    4.2355E-20
  54504.156    4.0514E-20
  54504.227    3.9321E-20
  54504.293    3.9199E-20
  54504.363    3.8025E-20
  54504.430    3.6656E-20
  54504.500    3.6020E-20
  54504.574    3.6761E-20
  54504.637    3.6658E-20
  54504.707    3.5626E-20
  54504.773    3.4432E-20
  54504.844    3.4027E-20
  54504.918    3.4290E-20
  54504.980    3.4124E-20
  54505.051    3.3972E-20
  54505.125    3.4372E-20
  54505.195    3.4033E-20
  54505.262    3.3897E-20
  54505.332    3.4243E-20
  54505.398    3.4694E-20
  54505.469    3.4550E-20
  54505.539    3.3728E-20
  54505.605    3.3859E-20
  54505.676    3.4859E-20
  54505.742    3.5667E-20
  54505.813    3.7045E-20
  54505.883    3.8885E-20
  54505.949    4.0510E-20
  54506.020    4.1799E-20
  54506.086    4.2568E-20
  54506.156    4.2962E-20
  54506.227    4.3448E-20
  54506.293    4.4817E-20
  54506.363    4.6972E-20
  54506.430    5.0562E-20
  54506.500    5.4512E-20
  54506.570    5.9651E-20
  54506.637    6.6763E-20
  54506.707    7.5381E-20
  54506.773    8.6162E-20
  54506.844    9.7318E-20
  54506.918    1.0857E-19
  54506.980    1.2342E-19
  54507.051    1.4132E-19
  54507.125    1.6158E-19
  54507.195    1.8418E-19
  54507.262    2.0686E-19
  54507.332    2.2787E-19
  54507.395    2.4728E-19
  54507.469    2.6534E-19
  54507.539    2.7632E-19
  54507.605    2.8045E-19
  54507.676    2.7820E-19
  54507.742    2.7180E-19
  54507.813    2.5996E-19
  54507.883    2.4801E-19
  54507.949    2.3411E-19
  54508.020    2.2072E-19
  54508.086    2.0575E-19
  54508.156    1.9024E-19
  54508.227    1.7480E-19
  54508.293    1.6086E-19
  54508.363    1.4873E-19
  54508.430    1.3853E-19
  54508.500    1.3046E-19
  54508.570    1.2450E-19
  54508.637    1.2058E-19
  54508.707    1.1848E-19
  54508.773    1.1933E-19
  54508.844    1.2357E-19
  54508.918    1.3074E-19
  54508.980    1.4027E-19
  54509.051    1.5108E-19
  54509.117    1.6335E-19
  54509.188    1.7677E-19
  54509.262    1.9020E-19
  54509.324    2.0270E-19
  54509.395    2.1276E-19
  54509.469    2.1897E-19
  54509.539    2.1958E-19
  54509.605    2.1491E-19
  54509.676    2.0722E-19
  54509.742    1.9814E-19
  54509.813    1.8722E-19
  54509.883    1.7552E-19
  54509.949    1.6420E-19
  54510.020    1.5291E-19
  54510.086    1.4134E-19
  54510.156    1.3018E-19
  54510.227    1.1932E-19
  54510.293    1.0904E-19
  54510.363    9.9718E-20
  54510.430    9.0971E-20
  54510.500    8.3575E-20
  54510.570    7.4478E-20
  54510.637    6.7370E-20
  54510.707    6.1889E-20
  54510.773    5.8529E-20
  54510.844    5.5730E-20
  54510.918    5.3212E-20
  54510.980    5.1045E-20
  54511.051    4.8691E-20
  54511.117    4.6521E-20
  54511.188    4.6036E-20
  54511.262    4.5985E-20
  54511.324    4.6463E-20
  54511.395    4.6826E-20
  54511.469    5.0393E-20
  54511.539    5.1268E-20
  54511.605    5.2696E-20
  54511.676    5.3946E-20
  54511.742    5.4837E-20
  54511.813    5.6141E-20
  54511.883    5.7066E-20
  54511.949    5.8299E-20
  54512.020    5.9056E-20
  54512.086    5.9388E-20
  54512.156    5.9209E-20
  54512.227    5.9370E-20
  54512.293    6.0576E-20
  54512.363    6.2926E-20
  54512.430    6.6188E-20
  54512.500    7.1454E-20
  54512.570    7.6172E-20
  54512.637    8.3008E-20
  54512.707    9.0475E-20
  54512.773    9.9414E-20
  54512.844    1.0956E-19
  54512.918    1.2181E-19
  54512.980    1.3600E-19
  54513.051    1.5240E-19
  54513.117    1.7136E-19
  54513.188    1.9389E-19
  54513.262    2.1817E-19
  54513.324    2.4245E-19
  54513.395    2.6571E-19
  54513.469    2.9275E-19
  54513.539    3.0871E-19
  54513.605    3.1861E-19
  54513.676    3.2213E-19
  54513.742    3.2030E-19
  54513.813    3.1449E-19
  54513.883    3.0581E-19
  54513.949    2.9375E-19
  54514.020    2.7947E-19
  54514.086    2.6523E-19
  54514.156    2.4985E-19
  54514.227    2.3519E-19
  54514.293    2.2134E-19
  54514.363    2.0890E-19
  54514.430    1.9756E-19
  54514.500    1.8968E-19
  54514.570    1.8488E-19
  54514.637    1.8303E-19
  54514.707    1.8278E-19
  54514.773    1.8440E-19
  54514.844    1.8664E-19
  54514.918    1.8892E-19
  54514.980    1.9129E-19
  54515.051    1.9241E-19
  54515.117    1.9110E-19
  54515.188    1.8733E-19
  54515.262    1.8122E-19
  54515.324    1.7348E-19
  54515.395    1.6345E-19
  54515.469    1.5216E-19
  54515.539    1.4097E-19
  54515.605    1.2977E-19
  54515.676    1.1864E-19
  54515.742    1.0814E-19
  54515.813    9.9145E-20
  54515.883    9.1896E-20
  54515.949    8.5752E-20
  54516.020    7.8520E-20
  54516.086    7.3751E-20
  54516.156    6.9682E-20
  54516.227    6.5518E-20
  54516.293    6.4234E-20
  54516.363    6.4154E-20
  54516.430    6.4812E-20
  54516.500    6.5724E-20
  54516.570    6.6571E-20
  54516.637    6.6750E-20
  54516.707    6.7289E-20
  54516.773    6.9189E-20
  54516.844    7.1327E-20
  54516.918    7.3850E-20
  54516.980    7.7160E-20
  54517.051    8.2913E-20
  54517.117    8.7759E-20
  54517.188    9.3081E-20
  54517.262    9.8629E-20
  54517.324    1.0461E-19
  54517.395    1.1151E-19
  54517.469    1.1905E-19
  54517.539    1.2793E-19
  54517.605    1.3811E-19
  54517.676    1.4922E-19
  54517.742    1.6297E-19
  54517.813    1.7747E-19
  54517.883    1.9431E-19
  54517.949    2.1337E-19
  54518.020    2.3384E-19
  54518.086    2.5441E-19
  54518.156    2.7407E-19
  54518.227    2.9107E-19
  54518.293    3.0244E-19
  54518.363    3.0926E-19
  54518.430    3.1089E-19
  54518.500    3.0791E-19
  54518.570    3.0210E-19
  54518.637    2.9564E-19
  54518.707    2.8824E-19
  54518.773    2.7867E-19
  54518.844    2.6843E-19
  54518.918    2.5561E-19
  54518.980    2.4267E-19
  54519.051    2.3091E-19
  54519.125    2.1796E-19
  54519.195    2.0385E-19
  54519.262    1.8955E-19
  54519.332    1.7453E-19
  54519.398    1.6045E-19
  54519.469    1.4866E-19
  54519.539    1.3822E-19
  54519.605    1.2895E-19
  54519.676    1.2164E-19
  54519.742    1.1496E-19
  54519.813    1.0885E-19
  54519.883    1.0479E-19
  54519.949    1.0252E-19
  54520.020    1.0001E-19
  54520.086    9.7864E-20
  54520.156    9.7677E-20
  54520.227    9.8749E-20
  54520.293    9.9713E-20
  54520.363    1.0191E-19
  54520.430    1.0518E-19
  54520.500    1.1049E-19
  54520.574    1.1734E-19
  54520.637    1.2639E-19
  54520.707    1.3800E-19
  54520.773    1.5173E-19
  54520.844    1.6843E-19
  54520.918    1.8831E-19
  54520.980    2.0985E-19
  54521.051    2.3278E-19
  54521.125    2.5549E-19
  54521.195    2.8538E-19
  54521.262    3.0350E-19
  54521.332    3.1844E-19
  54521.398    3.2887E-19
  54521.469    3.3231E-19
  54521.539    3.2926E-19
  54521.605    3.2020E-19
  54521.676    3.0691E-19
  54521.742    2.9073E-19
  54521.813    2.7454E-19
  54521.883    2.5849E-19
  54521.949    2.4448E-19
  54522.020    2.3249E-19
  54522.086    2.2207E-19
  54522.156    2.1350E-19
  54522.227    2.0549E-19
  54522.293    1.9933E-19
  54522.363    1.9711E-19
  54522.430    1.9817E-19
  54522.500    2.0152E-19
  54522.574    2.0692E-19
  54522.637    2.1428E-19
  54522.707    2.2411E-19
  54522.781    2.3527E-19
  54522.852    2.4631E-19
  54522.918    2.5492E-19
  54522.988    2.5976E-19
  54523.055    2.5988E-19
  54523.125    2.5392E-19
  54523.195    2.4295E-19
  54523.262    2.2766E-19
  54523.332    2.0920E-19
  54523.398    1.9005E-19
  54523.469    1.7148E-19
  54523.539    1.5382E-19
  54523.605    1.3692E-19
  54523.676    1.2242E-19
  54523.742    1.0976E-19
  54523.813    9.8865E-20
  54523.883    8.8067E-20
  54523.949    8.0068E-20
  54524.020    7.2239E-20
  54524.086    6.8829E-20
  54524.156    6.2822E-20
  54524.230    5.8264E-20
  54524.293    5.4514E-20
  54524.363    5.0287E-20
  54524.430    4.8847E-20
  54524.500    4.7118E-20
  54524.574    4.5728E-20
  54524.637    4.5353E-20
  54524.707    4.5134E-20
  54524.781    4.6264E-20
  54524.852    4.7212E-20
  54524.918    5.0872E-20
  54524.988    5.2194E-20
  54525.055    5.3402E-20
  54525.125    5.4630E-20
  54525.195    5.6399E-20
  54525.262    5.7137E-20
  54525.332    5.7135E-20
  54525.398    5.5962E-20
  54525.469    5.4174E-20
  54525.539    5.2827E-20
  54525.605    5.2209E-20
  54525.676    4.9051E-20
  54525.742    4.5123E-20
  54525.813    4.1573E-20
  54525.883    3.8732E-20
  54525.949    3.6338E-20
  54526.020    3.3703E-20
  54526.086    3.0924E-20
  54526.156    2.8788E-20
  54526.230    2.6071E-20
  54526.293    2.3332E-20
  54526.363    2.0596E-20
  54526.438    1.7733E-20
  54526.508    1.6640E-20
  54526.574    1.5748E-20
  54526.645    1.5509E-20
  54526.711    1.5748E-20
  54526.781    1.4814E-20
  54526.852    1.3706E-20
  54526.918    1.3227E-20
  54526.988    1.2755E-20
  54527.055    1.2445E-20
  54527.125    1.1299E-20
  54527.195    9.9312E-21
  54527.262    9.9857E-21
  54527.332    1.0457E-20
  54527.398    9.5904E-21
  54527.469    9.1315E-21
  54527.539    8.7821E-21
  54527.605    8.0553E-21
  54527.676    7.3068E-21
  54527.742    7.5871E-21
  54527.813    6.9990E-21
  54527.887    6.3640E-21
  54527.949    6.1442E-21
  54528.020    5.6299E-21
  54528.094    4.5036E-21
  54528.164    3.9779E-21
  54528.230    4.1458E-21
  54528.301    5.1789E-21
  54528.367    6.2042E-21
  54528.438    7.4249E-21
  54528.508    7.5925E-21
  54528.574    6.9805E-21
  54528.645    6.6882E-21
  54528.711    6.4444E-21
  54528.781    6.5100E-21
  54528.852    6.5666E-21
  54528.918    6.4604E-21
  54528.988    6.4311E-21
  54529.055    5.8810E-21
  54529.125    5.0368E-21
  54529.195    4.2561E-21
  54529.262    3.6322E-21
  54529.332    3.5337E-21
  54529.398    3.8070E-21
  54529.469    4.5924E-21
  54529.543    4.8615E-21
  54529.605    4.6769E-21
  54529.676    4.9538E-21
  54529.750    4.4923E-21
  54529.820    4.2154E-21
  54529.887    4.6769E-21
  54529.957    4.9538E-21
  54530.023    4.4923E-21
  54530.094    4.2154E-21
  54530.164    4.6769E-21
  54530.230    4.4923E-21
  54530.301    4.6769E-21
  54530.367    4.2154E-21
  54530.438    3.6784E-21
  54530.508    3.4052E-21
  54530.574    3.3281E-21
  54530.645    3.5571E-21
  54530.711    4.0123E-21
  54530.781    3.6637E-21
  54530.852    3.6725E-21
  54530.918    3.9591E-21
  54530.988    3.9542E-21
  54531.055    3.9448E-21
  54531.125    3.7844E-21
  54531.199    3.1988E-21
  54531.262    2.3933E-21
  54531.332    1.5402E-21
  54531.406    1.0333E-21
  54531.477    1.4634E-21
  54531.543    2.2455E-21
  54531.613    2.5144E-21
  54531.680    3.1247E-21
  54531.750    3.3327E-21
  54531.820    2.9708E-21
  54531.887    2.6869E-21
  54531.957    1.9982E-21
  54532.023    1.7213E-21
  54532.094    2.3919E-21
  54532.164    3.7530E-21
  54532.230    3.8348E-21
  54532.301    3.2366E-21
  54532.367    2.7646E-21
  54532.438    2.8825E-21
  54532.508    3.2889E-21
  54532.574    4.0799E-21
  54532.645    3.8780E-21
  54532.711    3.3337E-21
  54532.781    2.9057E-21
  54532.855    2.6743E-21
  54532.918    3.5665E-21
  54532.988    3.7538E-21
  54533.063    4.2154E-21
  54533.133    3.9385E-21
  54533.199    3.7538E-21
  54533.270    3.9919E-21
  54533.336    4.1874E-21
  54533.406    3.2000E-21
  54533.477    3.0154E-21
  54533.543    3.2482E-21
  54533.613    2.9081E-21
  54533.680    2.2781E-21
  54533.750    2.5538E-21
  54533.820    2.0000E-21
  54533.887    2.2769E-21
  54533.957    2.7385E-21
  54534.023    2.4615E-21
  54534.094    2.7385E-21
  54534.164    2.5538E-21
  54534.230    2.2769E-21
  54534.301    2.4615E-21
  54534.367    2.9231E-21
  54534.438    3.2000E-21
  54534.512    3.0154E-21
  54534.574    3.2923E-21
  54534.645    2.9231E-21
  54534.719    2.5538E-21
  54534.789    2.2769E-21
  54534.855    2.4615E-21
  54534.926    3.2000E-21
  54534.992    3.0154E-21
  54535.063    3.6301E-21
  54535.133    3.1439E-21
  54535.199    3.0134E-21
  54535.270    2.9073E-21
  54535.336    2.3815E-21
  54535.406    1.8255E-21
  54535.477    1.5124E-21
  54535.543    1.6667E-21
  54535.613    1.5180E-21
  54535.680    7.2314E-22
  54535.750    7.5536E-22
  54535.824    1.1046E-21
  54535.887    1.9093E-21
  54535.957    2.5634E-21
  54536.023    2.0349E-21
  54536.094    1.4926E-21
  54536.168    1.2730E-21
  54536.230    1.4534E-21
  54536.301    1.7937E-21
  54536.375    1.0809E-21
  54536.445    7.0588E-22
  54536.512    1.2208E-21
  54536.582    2.1846E-21
  54536.648    2.7385E-21
  54536.719    1.7231E-21
  54536.789    1.4462E-21
  54536.855    1.7231E-21
  54536.926    2.0000E-21
  54536.992    2.5538E-21
  54537.063    2.7385E-21
  54537.133    2.4615E-21
  54537.199    2.1846E-21
  54537.270    2.5538E-21
  54537.336    3.0956E-21
  54537.406    2.3631E-21
  54537.480    2.6441E-21
  54537.543    3.3279E-21
  54537.613    2.5538E-21
  54537.688    2.1846E-21
  54537.758    1.8154E-21
  54537.824    1.7231E-21
  54537.895    1.2615E-21
  54537.961    1.6308E-21
  54538.031    1.7538E-21
  54538.102    1.4462E-21
  54538.168    1.2615E-21
  54538.238    8.9231E-22
  54538.305    9.5385E-22
  54538.375    1.1385E-21
  54538.445    1.5692E-21
  54538.512    1.2615E-21
  54538.582    1.0769E-21
  54538.648    9.5385E-22
  54538.719    1.2615E-21
  54538.789    1.6308E-21
  54538.855    1.3846E-21
  54538.926    1.1385E-21
  54538.992    9.5385E-22
  54539.063    4.6154E-22
  54539.137    6.4615E-22
  54539.199    8.9231E-22
  54539.270    1.0769E-21
  54539.344    7.6923E-22
  54539.414    4.0000E-22
  54539.480    2.7692E-22
  54539.551    4.6154E-22
  54539.617    6.4615E-22
  54539.688    1.2615E-21
  54539.758    1.3846E-21
  54539.824    9.5385E-22
  54539.895    7.6923E-22
  54539.961    5.8462E-22
  54540.031    7.6923E-22
  54540.102    9.5385E-22
  54540.168    1.2615E-21
  54540.238    1.8769E-21
  54540.305    1.6308E-21
  54540.375    1.4462E-21
  54540.449    1.1385E-21
  54540.512    9.5385E-22
  54540.582    1.3846E-21
  54540.648    1.5692E-21
  54540.719    1.4462E-21
  54540.793    1.2615E-21
  54540.855    2.4505E-21
  54540.926    1.5692E-21
  54541.000    1.2615E-21
  54541.070    1.5692E-21
  54541.137    1.3846E-21
  54541.207    1.0769E-21
  54541.273    7.6923E-22
  54541.344    9.5385E-22
  54541.414    1.2615E-21
  54541.480    1.3846E-21
  54541.551    1.7395E-21
  54541.617    9.6612E-22
  54541.688    4.1548E-22
  54541.758    9.2976E-22
  54541.824    1.1734E-21
  54541.895    1.8937E-21
  54541.961    2.9758E-21
  54542.031    3.1477E-21
  54542.105    2.4579E-21
  54542.168    1.4449E-21
  54542.238    8.9545E-22
  54542.313    5.0668E-23
  54542.383   -5.4714E-22
  54542.449   -9.4711E-22
  54542.520   -5.3681E-22
  54542.586    1.0369E-21
  54542.656    1.5126E-21
  54542.727    8.8310E-22
  54542.793    1.0031E-21
  54542.863    1.1994E-21
  54542.930    1.2191E-21
  54543.000    1.3986E-21
  54543.070    1.4605E-21
  54543.137    1.6529E-21
  54543.207    1.2252E-21
  54543.273    1.1667E-21
  54543.344    1.3022E-21
  54543.418    1.0210E-21
  54543.480    6.0301E-22
  54543.551    2.0889E-22
  54543.617   -8.2531E-23
  54543.688    4.4171E-22
  54543.762    1.2900E-21
  54543.824    1.8629E-21
  54543.895    1.7932E-21
  54543.969    2.1162E-21
  54544.039    3.0168E-21
  54544.105    3.0236E-21
  54544.176    2.5066E-21
  54544.242    2.2230E-21
  54544.313    1.6445E-21
  54544.383    1.4554E-21
  54544.449    7.5268E-22
  54544.520   -1.2662E-23
  54544.586   -5.1103E-22
  54544.656   -6.2046E-22
  54544.727    3.0798E-22
  54544.793    1.0725E-21
  54544.863    7.7694E-22
  54544.930    4.2765E-22
  54545.000    3.1531E-22
  54545.074    8.8683E-22
  54545.137    1.3430E-21
  54545.207    1.0363E-21
  54545.281    7.9606E-22
  54545.352    2.3358E-22
  54545.418   -1.2162E-22
  54545.488    1.6939E-22
  54545.555    1.2110E-21
  54545.625    2.3413E-21
  54545.695    2.4739E-21
  54545.762    2.1376E-21
  54545.832    2.6254E-21
  54545.898    3.6027E-21
  54545.969    3.8632E-21
  54546.039    4.2909E-21
  54546.105    4.1320E-21
  54546.176    4.2573E-21
  54546.242    4.3559E-21
  54546.313    4.5283E-21
  54546.387    4.4920E-21
  54546.449    4.9263E-21
  54546.520    4.7098E-21
  54546.594    4.6029E-21
  54546.664    4.6139E-21
  54546.730    4.2720E-21
  54546.801    3.6898E-21
  54546.867    3.1108E-21
  54546.938    2.8307E-21
  54547.008    2.3028E-21
  54547.074    2.3335E-21
  54547.145    3.0949E-21
  54547.211    3.7941E-21
  54547.281    3.7964E-21
  54547.352    3.0678E-21
  54547.418    2.1221E-21
  54547.488    1.3602E-21
  54547.555    1.0518E-21
  54547.625    1.3777E-21
  54547.699    2.0044E-21
  54547.762    1.6325E-21
  54547.832    1.0560E-21
  54547.898   -9.1050E-23
  54547.969   -8.1568E-22
  54548.043   -1.7683E-22
  54548.105    7.2039E-22
  54548.176    7.1665E-22
  54548.250    1.1959E-21
  54548.320    1.5193E-21
  54548.387    1.1401E-21
  54548.457    6.3800E-22
  54548.523    5.3747E-23
  54548.594   -6.3361E-22
  54548.664   -1.0807E-21
  54548.730   -1.8489E-22
  54548.801    1.0743E-21
  54548.867    2.1914E-21
  54548.938    3.3154E-21
  54549.008    3.9312E-21
  54549.074    4.6602E-21
  54549.145    5.0403E-21
  54549.211    5.0003E-21
  54549.281    4.3604E-21
  54549.355    4.2843E-21
  54549.418    4.0076E-21
  54549.488    3.4612E-21
  54549.563    2.6863E-21
  54549.633    2.5296E-21
  54549.699    3.2643E-21
  54549.770    2.8786E-21
  54549.836    2.1463E-21
  54549.906    1.4407E-21
  54549.977    3.7116E-22
  54550.043    4.0627E-22
  54550.113    8.8616E-22
  54550.180    9.9064E-22
  54550.250    1.9634E-21
  54550.320    2.3750E-21
  54550.387    1.1328E-21
  54550.457    2.5240E-22
  54550.523   -3.5196E-23
  54550.594   -2.8610E-22
  54550.668   -4.0646E-22
  54550.730    1.7170E-22
  54550.801    5.4273E-22
  54550.875    4.1313E-22
  54550.945    4.5483E-22
  54551.012    8.9184E-22
  54551.082    1.5225E-21
  54551.148    1.6441E-21
  54551.219    2.4219E-21
  54551.289    2.9470E-21
  54551.355    2.2178E-21
  54551.426    1.1725E-21
  54551.492    1.0682E-21
  54551.563    1.9318E-21
  54551.633    2.1501E-21
  54551.699    1.7419E-21
  54551.770    2.1823E-21
  54551.836    2.6249E-21
  54551.906    2.5163E-21
  54551.980    3.2873E-21
  54552.043    3.5406E-21
  54552.113    3.6637E-21
  54552.188    3.5740E-21
  54552.258    3.0224E-21
  54552.324    2.1584E-21
  54552.395    1.3135E-21
  54552.461    2.9017E-22
  54552.531   -6.3770E-22
  54552.602   -8.2093E-22
  54552.668   -5.5349E-22
  54552.738    1.7001E-22
  54552.805    4.1059E-22
  54552.875    8.0998E-23
  54552.945    9.9541E-23
  54553.012    8.0851E-22
  54553.082    1.1681E-21
  54553.148    1.4545E-21
  54553.219    1.2186E-21
  54553.293    1.4034E-21
  54553.355    1.4885E-21
  54553.426    9.5115E-22
  54553.500    1.1248E-21
  54553.570    1.6580E-21
  54553.637    1.6919E-21
  54553.707    1.9158E-21
  54553.773    2.4246E-21
  54553.844    3.2131E-21
  54553.914    5.0305E-21
  54553.980    5.7032E-21
  54554.051    5.9209E-21
  54554.117    6.2890E-21
  54554.188    5.5012E-21
  54554.258    3.9356E-21
  54554.324    3.0276E-21
  54554.395    2.5630E-21
  54554.461    1.4226E-21
  54554.531    9.1159E-22
  54554.605    1.2582E-21
  54554.668    1.6673E-21
  54554.738    2.4815E-21
  54554.813    3.5050E-21
  54554.883    4.2050E-21
  54554.949    4.1845E-21
  54555.020    3.2555E-21
  54555.086    2.5007E-21
  54555.156    1.8648E-21
  54555.227    5.7738E-22
  54555.293   -7.0199E-22
  54555.363   -4.3078E-22
  54555.430    2.1749E-22
  54555.500    3.6209E-22
  54555.570    1.2847E-21
  54555.637    2.3188E-21
  54555.707    2.4661E-21
  54555.773    2.1266E-21
  54555.844    2.1898E-21
  54555.918    2.6355E-21
  54555.980    3.1881E-21
  54556.051    4.0739E-21
  54556.117    4.0542E-21
  54556.195    3.5715E-21
  54556.262    3.5192E-21
  54556.332    3.5753E-21
  54556.398    4.0180E-21
  54556.469    4.0683E-21
  54556.539    4.3063E-21
  54556.605    4.1015E-21
  54556.676    3.3256E-21
  54556.742    2.4763E-21
  54556.813    1.4033E-21
  54556.883    6.0991E-22
  54556.949    1.7555E-22
  54557.020   -1.6901E-22
  54557.086   -1.7751E-22
  54557.156   -7.5004E-22
  54557.230   -7.0444E-22
  54557.293   -3.5654E-22
  54557.363   -6.1471E-22
  54557.430   -7.5734E-22
  54557.508   -4.5219E-22
  54557.574   -2.4590E-22
  54557.645   -1.2959E-22
  54557.711   -1.6495E-22
  54557.781   -5.6771E-23
  54557.852   -1.4412E-22
  54557.918    1.9369E-23
  54557.988   -2.1459E-22
  54558.055   -8.0726E-22
  54558.125   -7.6452E-22
  54558.195   -9.4393E-22
  54558.262   -4.8597E-22
  54558.332   -2.9712E-22
  54558.398    8.0058E-22
  54558.469    2.0515E-21
  54558.543    1.9469E-21
  54558.605    1.9013E-21
  54558.676    2.3572E-21
  54558.750    3.0164E-21
  54558.820    2.7163E-21
  54558.887    2.1089E-21
  54558.957    8.4902E-22
  54559.023   -6.3394E-22
  54559.094   -1.6412E-21
  54559.164   -1.6129E-21
  54559.230   -1.0475E-21
  54559.301   -7.4118E-22
  54559.367   -6.3186E-22
  54559.438   -6.9294E-23
  54559.508    6.5145E-22
  54559.574    8.9391E-22
  54559.645    5.1298E-23
  54559.711   -6.0085E-22
  54559.781   -3.6681E-22
  54559.855    1.8535E-22
  54559.918    8.4880E-22
  54559.988    1.9535E-21
  54560.063    1.9934E-21
  54560.133    2.5157E-21
  54560.199    2.9981E-21
  54560.270    3.2657E-21
  54560.336    3.9803E-21
  54560.406    4.9104E-21
  54560.477    5.5882E-21
  54560.543    5.6810E-21
  54560.613    5.1045E-21
  54560.680    4.2595E-21
  54560.750    3.4550E-21
  54560.820    2.9922E-21
  54560.887    3.1000E-21
  54560.957    3.2451E-21
  54561.023    2.9800E-21
  54561.094    3.0599E-21
  54561.168    3.6026E-21
  54561.230    3.8553E-21
  54561.301    3.2614E-21
  54561.375    2.1628E-21
  54561.445    1.3057E-21
  54561.512    9.1892E-22
  54561.582    8.2197E-22
  54561.648    8.7458E-22
  54561.719    7.7235E-22
  54561.789    1.2662E-21
  54561.855    1.8394E-21
  54561.926    2.2194E-21
  54561.992    2.8136E-21
  54562.063    2.7059E-21
  54562.133    2.8178E-21
  54562.199    2.6178E-21
  54562.270    2.0993E-21
  54562.336    2.2941E-21
  54562.406    2.5437E-21
  54562.480    1.8366E-21
  54562.543    1.4618E-21
  54562.613    1.0247E-21
  54562.688   -1.3413E-22
  54562.758   -8.0000E-22
  54562.824   -4.3077E-22
  54562.895   -1.3538E-21
  54562.961   -1.5385E-21
  54563.031   -8.0000E-22
  54563.102   -2.2161E-21
  54563.168   -1.9077E-21
  54563.238   -9.8461E-22
  54563.305    7.6912E-22
  54563.375    1.2308E-22
  54563.445    1.2308E-22
  54563.512   -4.3077E-22
  54563.582   -1.3538E-21
  54563.648   -1.5385E-21
  54563.719   -1.0536E-21
  54563.793   -6.1538E-23
  54563.855    4.9231E-22
  54563.926   -4.3077E-22
  54564.000    1.2308E-22
  54564.070    4.9231E-22
  54564.137   -8.0000E-22
  54564.207   -1.3538E-21
  54564.273   -4.9231E-22
  54564.344   -9.8461E-22
  54564.414   -6.1538E-23
  54564.480   -4.3077E-22
  54564.551   -8.0000E-22
  54564.617    1.2308E-22
  54564.688    1.0462E-21
  54564.762    1.9692E-21
  54564.824    1.6000E-21
  54564.895    1.0462E-21
  54564.961    6.7692E-22
  54565.039    1.4154E-21
  54565.105    2.1538E-21
  54565.176    1.9692E-21
  54565.242    1.4154E-21
  54565.313    1.6000E-21
  54565.383    2.5231E-21
  54565.449    2.7955E-21
  54565.520    3.1535E-21
  54565.586    2.5538E-21
  54565.656    2.0000E-21
  54565.727    1.7231E-21
  54565.793    2.1846E-21
  54565.863    2.0000E-21
  54565.930    1.5385E-21
  54566.000    1.4462E-21
  54566.074    1.0769E-21
  54566.137    7.0769E-22
  54566.207    1.0769E-21
  54566.281    1.2761E-21
  54566.352    1.0400E-21
  54566.418    1.1700E-21
  54566.488    1.2459E-21
  54566.555    1.3150E-21
  54566.625    9.1939E-22
  54566.695    1.0769E-21
  54566.762    7.0769E-22
  54566.832    5.2308E-22
  54566.898    8.0000E-22
  54566.969    1.2615E-21
  54567.039    1.5385E-21
  54567.105    1.4462E-21
  54567.176    1.0769E-21
  54567.242    8.0000E-22
  54567.313    5.2308E-22
  54567.387    8.0000E-22
  54567.449    2.8568E-22
  54567.520   -3.0769E-23
  54567.594    6.1539E-23
  54567.664    5.2308E-22
  54567.730    1.0769E-21
  54567.801    9.8462E-22
  54567.867    7.0769E-22
  54567.938    2.4615E-22
  54568.008    3.3846E-22
  54568.074    9.8462E-22
  54568.145    1.0769E-21
  54568.211    7.0769E-22
  54568.281    5.2308E-22
  54568.352    1.0769E-21
  54568.418    1.5385E-21
  54568.488    1.4462E-21
  54568.555    8.0000E-22
  54568.625    5.2308E-22
  54568.699    1.4201E-21
  54568.762    9.8462E-22
  54568.836    1.5385E-21
  54568.906    1.8154E-21
  54568.977    1.7231E-21
  54569.043    1.5188E-21
  54569.113    1.0769E-21
  54569.180    7.0769E-22
  54569.250   -3.0769E-23
  54569.320   -4.0000E-22
  54569.387    5.2308E-22
  54569.457    1.0769E-21
  54569.523    1.2615E-21
  54569.594    7.0769E-22
  54569.668    3.3846E-22
  54569.730   -3.0769E-23
  54569.801   -2.1538E-22
  54569.875    2.4615E-22
  54569.945    7.0769E-22
  54570.012    1.4462E-21
  54570.082    1.8154E-21
  54570.148    2.2769E-21
  54570.219    1.8154E-21
  54570.289    1.7231E-21
  54570.355    1.4462E-21
  54570.426    8.0000E-22
  54570.492    7.0769E-22
  54570.563    1.0769E-21
  54570.633    1.8154E-21
  54570.699    2.2769E-21
  54570.770    2.1846E-21
  54570.836    1.7231E-21
  54570.906    2.1846E-21
  54570.980    3.0283E-21
  54571.043    3.1361E-21
  54571.113    3.3988E-21
  54571.188    3.7099E-21
  54571.258    2.7793E-21
  54571.324    2.2234E-21
  54571.395    2.0772E-21
  54571.461    1.7260E-21
  54571.531    1.4043E-21
  54571.602    7.7352E-22
  54571.668    4.6785E-22
  54571.738    2.7176E-22
  54571.805    1.8487E-22
  54571.875    9.7202E-23
  54571.949    4.1108E-22
  54572.012    1.1903E-21
  54572.082    1.7028E-21
  54572.148    2.3982E-21
  54572.227    2.5884E-21
  54572.293    2.1256E-21
  54572.363    1.7011E-21
  54572.430    1.1311E-21
  54572.500    4.5718E-22
  54572.570    9.0451E-24
  54572.637   -4.8556E-23
  54572.707    5.6852E-22
  54572.773    1.0353E-21
  54572.844    8.7532E-22
  54572.914    4.0072E-22
  54572.980    9.0141E-22
  54573.051    2.1631E-21
  54573.117    2.2818E-21
  54573.188    1.8124E-21
  54573.262    1.8047E-21
  54573.324    1.5177E-21
  54573.395    2.0097E-21
  54573.469    2.3438E-21
  54573.539    1.9658E-21
  54573.605    7.4702E-22
  54573.676    1.3025E-22
  54573.742   -2.5834E-22
  54573.813   -5.0571E-23
  54573.883    5.1692E-22
  54573.949    1.0299E-21
  54574.020    1.3187E-21
  54574.086    1.5237E-21
  54574.156    9.4743E-22
  54574.227    2.9050E-22
  54574.293   -1.0618E-22
  54574.363   -3.3610E-22
  54574.430   -5.9071E-22
  54574.500   -6.6585E-22
  54574.574   -5.2465E-22
  54574.645   -1.8464E-23
  54574.711    3.2271E-22
  54574.781    3.9104E-22
  54574.852    1.1333E-21
  54574.918    2.1928E-21
  54574.988    3.4101E-21
