# 16O2;(8,0);79K;53850-4200 cm-1;5173 pts
#     WNO          SIGMA  
  53850.006   -1.2297E-23
  53850.073   -1.6951E-23
  53850.140   -9.0584E-24
  53850.208    1.3891E-23
  53850.275    2.6617E-23
  53850.342    3.2384E-23
  53850.410    2.6429E-23
  53850.477    8.8757E-24
  53850.544    7.0118E-25
  53850.611    6.0669E-25
  53850.679    1.3224E-23
  53850.746    1.4290E-23
  53850.813    1.0717E-23
  53850.881    4.8393E-24
  53850.948   -4.4662E-24
  53851.015   -5.7077E-24
  53851.082   -8.0952E-24
  53851.150   -9.3359E-24
  53851.217   -1.4006E-23
  53851.284   -1.1810E-23
  53851.352   -6.1816E-24
  53851.419    6.2193E-25
  53851.486    3.9874E-24
  53851.553    8.5150E-24
  53851.621    1.6550E-23
  53851.688    1.0647E-23
  53851.755    4.7643E-24
  53851.823    5.3542E-26
  53851.890   -2.3436E-24
  53851.957   -1.1615E-23
  53852.024   -2.1972E-23
  53852.092   -2.9997E-23
  53852.159   -3.4610E-23
  53852.226   -3.3574E-23
  53852.294   -2.9148E-23
  53852.361   -2.6982E-23
  53852.428   -2.2535E-23
  53852.495   -1.9219E-23
  53852.563   -1.8173E-23
  53852.630   -1.4847E-23
  53852.697   -1.4940E-23
  53852.765   -1.3895E-23
  53852.832   -5.9677E-24
  53852.899   -4.9132E-24
  53852.966   -7.3046E-24
  53853.034   -1.3130E-23
  53853.101   -2.3484E-23
  53853.168   -2.5847E-23
  53853.236   -1.5702E-23
  53853.303   -8.9265E-24
  53853.370   -9.0210E-24
  53853.438   -3.3703E-24
  53853.505    1.1478E-24
  53853.572   -1.0071E-25
  53853.639   -4.8042E-24
  53853.707    8.6308E-25
  53853.774    5.3976E-24
  53853.841    1.2264E-23
  53853.909    2.1499E-23
  53853.976    1.7906E-23
  53854.043    8.4924E-24
  53854.110    7.2389E-24
  53854.178    1.3562E-24
  53854.245   -4.5058E-24
  53854.312   -3.4488E-24
  53854.380   -5.8466E-24
  53854.447   -1.3320E-24
  53854.514   -3.7324E-24
  53854.582   -1.6449E-23
  53854.649   -2.3393E-23
  53854.716   -2.6896E-23
  53854.783   -2.9260E-23
  53854.851   -3.0484E-23
  53854.918   -2.8308E-23
  53854.985   -1.2439E-23
  53855.053    1.2496E-25
  53855.120    9.3005E-24
  53855.187    1.5027E-23
  53855.255    5.6323E-24
  53855.322   -4.8692E-24
  53855.389   -9.5657E-24
  53855.456   -5.0582E-24
  53855.524   -8.6059E-24
  53855.591   -6.3994E-24
  53855.658    4.3013E-25
  53855.726    1.4914E-24
  53855.793   -9.1608E-25
  53855.860   -4.4736E-24
  53855.928   -5.7213E-24
  53855.995   -5.8158E-24
  53856.062   -3.6043E-24
  53856.130   -9.4590E-24
  53856.197   -2.3291E-23
  53856.264   -4.3765E-23
  53856.331   -5.1708E-23
  53856.399   -4.9563E-23
  53856.466   -3.9537E-23
  53856.533   -2.2620E-23
  53856.601   -2.0435E-23
  53856.668   -2.0528E-23
  53856.735   -9.1598E-24
  53856.803    1.1335E-24
  53856.870    4.5200E-24
  53856.937    1.3736E-23
  53857.004    1.8323E-23
  53857.072    1.8228E-23
  53857.139    1.9305E-23
  53857.206    1.6861E-23
  53857.274    4.7060E-25
  53857.341   -1.1162E-23
  53857.408   -2.1570E-23
  53857.476   -3.3045E-23
  53857.543   -3.3139E-23
  53857.610   -2.7552E-23
  53857.678   -2.4237E-23
  53857.745   -1.8613E-23
  53857.812   -1.0675E-23
  53857.879   -3.8512E-24
  53857.947   -1.6340E-24
  53858.014    2.9046E-24
  53858.081    5.1411E-24
  53858.149    6.2063E-24
  53858.216    2.6229E-24
  53858.283    3.6894E-24
  53858.351   -6.8243E-24
  53858.418   -1.0377E-23
  53858.485   -7.0133E-24
  53858.553   -9.4150E-24
  53858.620   -1.2962E-23
  53858.687   -1.4205E-23
  53858.755   -1.8890E-23
  53858.822   -2.3562E-23
  53858.889   -2.3656E-23
  53858.956   -1.2284E-23
  53859.024   -5.4619E-24
  53859.091    4.8826E-24
  53859.158    3.6191E-24
  53859.226   -5.7456E-24
  53859.293   -1.3909E-23
  53859.360   -1.9741E-23
  53859.428   -1.4098E-23
  53859.495   -6.1248E-24
  53859.562   -1.5943E-24
  53859.630    9.9510E-24
  53859.697    1.3358E-23
  53859.764    1.2094E-23
  53859.832    1.5093E-24
  53859.899   -1.1308E-23
  53859.966   -1.3706E-23
  53860.034   -1.6100E-23
  53860.101   -1.8491E-23
  53860.168   -2.2022E-23
  53860.235   -3.4653E-23
  53860.303   -4.9448E-23
  53860.370   -4.8411E-23
  53860.437   -3.4945E-23
  53860.505   -2.1351E-23
  53860.572   -2.1446E-23
  53860.639   -2.0394E-23
  53860.707   -2.2781E-23
  53860.774   -1.5992E-23
  53860.841   -3.3879E-24
  53860.909    2.3174E-24
  53860.976    1.0639E-24
  53861.043    9.7042E-25
  53861.111    5.5357E-24
  53861.178    1.3622E-23
  53861.245    2.1749E-23
  53861.313    2.2834E-23
  53861.380    1.3331E-23
  53861.447    2.7270E-24
  53861.515   -1.1276E-23
  53861.582   -2.7441E-23
  53861.649   -4.1185E-23
  53861.717   -5.5929E-23
  53861.784   -5.2653E-23
  53861.851   -4.2596E-23
  53861.919   -3.2481E-23
  53861.986   -2.2290E-23
  53862.053   -2.4674E-23
  53862.121   -3.0483E-23
  53862.188   -3.3996E-23
  53862.255   -2.3814E-23
  53862.322   -7.7892E-24
  53862.390    8.4021E-24
  53862.457    1.2989E-23
  53862.524    4.7051E-24
  53862.592   -5.8526E-24
  53862.659   -1.0576E-23
  53862.726   -2.3660E-25
  53862.794    7.8287E-24
  53862.861    1.9052E-24
  53862.928    6.4171E-25
  53862.996    1.1057E-23
  53863.063    1.5664E-23
  53863.130    1.0870E-23
  53863.198   -4.3847E-24
  53863.265   -1.0272E-23
  53863.332   -1.4986E-23
  53863.400   -1.2773E-23
  53863.467   -1.2799E-24
  53863.534    2.1266E-24
  53863.602   -1.4681E-24
  53863.669   -1.1997E-23
  53863.736   -1.5554E-23
  53863.804   -1.9105E-23
  53863.871   -1.8048E-23
  53863.938   -1.1220E-23
  53864.006   -1.3626E-23
  53864.073   -1.2565E-23
  53864.140   -1.7275E-23
  53864.208   -1.3910E-23
  53864.275    2.2434E-24
  53864.342    9.1699E-24
  53864.410    1.4945E-23
  53864.477    8.9817E-24
  53864.544   -1.3228E-23
  53864.612   -2.4837E-23
  53864.679   -2.0336E-23
  53864.746   -1.5822E-23
  53864.814   -1.5917E-23
  53864.881   -1.7165E-23
  53864.948   -2.5310E-23
  53865.016   -3.2270E-23
  53865.083   -3.4653E-23
  53865.150   -3.1317E-23
  53865.218   -2.4542E-23
  53865.285   -1.5425E-23
  53865.352   -5.0886E-24
  53865.420   -4.0233E-24
  53865.487   -1.1084E-23
  53865.554   -1.6958E-23
  53865.622   -1.5900E-23
  53865.689   -6.7285E-24
  53865.756    1.3280E-24
  53865.824    7.0833E-24
  53865.891    3.4798E-24
  53865.958    1.0463E-24
  53866.026   -1.0683E-23
  53866.093   -2.5773E-23
  53866.160   -2.9307E-23
  53866.228   -2.1364E-23
  53866.295   -6.4236E-24
  53866.362    5.1529E-24
  53866.430    9.7482E-24
  53866.497    3.7947E-24
  53866.564   -9.7874E-25
  53866.632   -1.0735E-24
  53866.699    1.1730E-24
  53866.767    8.0983E-24
  53866.834    1.2705E-23
  53866.901    3.2214E-24
  53866.969   -1.2010E-23
  53867.036   -1.7889E-23
  53867.103   -1.6828E-23
  53867.171   -1.9233E-23
  53867.238   -1.3548E-23
  53867.305   -7.8420E-24
  53867.373   -6.7768E-24
  53867.440   -1.0402E-24
  53867.507    7.0563E-24
  53867.575    1.0492E-23
  53867.642    6.8681E-24
  53867.709   -1.4154E-24
  53867.777   -3.8501E-24
  53867.844    4.2364E-24
  53867.911    1.3553E-23
  53867.979    1.6998E-23
  53868.046    2.0455E-23
  53868.113    1.5621E-23
  53868.181    4.9365E-24
  53868.248   -5.6770E-24
  53868.315   -1.6220E-23
  53868.383   -1.6316E-23
  53868.450   -7.1287E-24
  53868.517    9.4782E-25
  53868.585    6.7131E-24
  53868.652    1.2510E-23
  53868.720    8.8749E-24
  53868.787    6.4314E-24
  53868.854    6.3379E-24
  53868.922    3.8932E-24
  53868.989    2.6297E-24
  53869.056    2.5362E-24
  53869.124    8.3115E-24
  53869.191    8.0140E-27
  53869.258   -1.5231E-23
  53869.326   -3.2616E-23
  53869.393   -3.5004E-23
  53869.460   -2.0144E-23
  53869.528    1.0098E-23
  53869.595    2.5395E-23
  53869.662    2.5301E-23
  53869.730    1.3346E-23
  53869.797   -8.4706E-25
  53869.865   -2.1870E-23
  53869.932   -2.8877E-23
  53869.999   -3.0121E-23
  53870.067   -3.0215E-23
  53870.134   -2.6860E-23
  53870.201   -2.3496E-23
  53870.269   -2.0126E-23
  53870.336   -1.5589E-23
  53870.403   -1.9158E-23
  53870.471   -2.6182E-23
  53870.538   -2.9729E-23
  53870.605   -2.5218E-23
  53870.673   -2.1851E-23
  53870.740   -2.4255E-23
  53870.807   -1.6252E-23
  53870.875    3.4997E-24
  53870.942    3.4063E-24
  53871.010   -1.5378E-23
  53871.077   -1.7790E-23
  53871.144   -1.6725E-23
  53871.212   -1.3340E-23
  53871.279   -6.4436E-24
  53871.346   -7.7071E-24
  53871.414   -7.8018E-24
  53871.481   -5.5553E-24
  53871.548    1.3712E-24
  53871.616    1.2765E-24
  53871.683    3.5330E-24
  53871.750   -1.2505E-24
  53871.818   -1.4185E-23
  53871.885   -2.4712E-23
  53871.953   -3.5165E-23
  53872.020   -4.6687E-23
  53872.087   -4.7920E-23
  53872.155   -3.5450E-23
  53872.222   -1.7079E-23
  53872.289   -5.5221E-24
  53872.357   -6.7868E-24
  53872.424   -8.0503E-24
  53872.491   -1.6304E-23
  53872.559   -1.7559E-23
  53872.626   -2.9214E-23
  53872.694   -4.1937E-23
  53872.761   -4.3170E-23
  53872.828   -3.4101E-23
  53872.896   -2.6133E-23
  53872.963   -1.9285E-23
  53873.030   -4.2254E-24
  53873.098    3.6989E-25
  53873.165    2.7641E-25
  53873.232   -4.5071E-24
  53873.300   -1.5112E-23
  53873.367   -3.0257E-23
  53873.435   -4.8680E-23
  53873.502   -5.8993E-23
  53873.569   -6.4727E-23
  53873.637   -6.3702E-23
  53873.704   -6.6045E-23
  53873.771   -6.8399E-23
  53873.839   -5.1523E-23
  53873.906   -4.1347E-23
  53873.973   -4.3730E-23
  53874.041   -5.0675E-23
  53874.108   -5.6449E-23
  53874.176   -5.0863E-23
  53874.243   -5.4367E-23
  53874.310   -6.5770E-23
  53874.378   -6.6995E-23
  53874.445   -5.5788E-23
  53874.512   -5.2472E-23
  53874.580   -4.0009E-23
  53874.647   -2.5129E-23
  53874.715   -2.4068E-23
  53874.782   -2.4161E-23
  53874.849   -3.0036E-23
  53874.917   -3.4741E-23
  53874.984   -2.9072E-23
  53875.051   -2.2223E-23
  53875.119   -1.9998E-23
  53875.186   -2.4730E-23
  53875.254   -2.0186E-23
  53875.321   -1.7960E-23
  53875.388   -1.9213E-23
  53875.456   -2.7424E-23
  53875.523   -3.5594E-23
  53875.590   -3.4536E-23
  53875.658   -3.3481E-23
  53875.725   -4.0472E-23
  53875.792   -3.5972E-23
  53875.860   -2.6837E-23
  53875.927   -1.5315E-23
  53875.995   -1.7977E-25
  53876.062    5.6267E-24
  53876.129   -3.6673E-25
  53876.197   -7.5115E-24
  53876.264   -1.4625E-23
  53876.331   -1.4718E-23
  53876.399   -3.1032E-24
  53876.466   -8.4664E-25
  53876.534    1.4186E-24
  53876.601   -1.0348E-24
  53876.668   -1.6358E-23
  53876.736   -3.1537E-23
  53876.803   -3.1632E-23
  53876.871   -2.4783E-23
  53876.938   -1.3235E-23
  53877.005    4.2918E-24
  53877.073    1.6067E-23
  53877.140    1.8354E-23
  53877.207    9.9301E-24
  53877.275   -1.0205E-23
  53877.342   -1.9638E-23
  53877.410   -1.6233E-23
  53877.477   -9.3163E-24
  53877.544   -8.2398E-24
  53877.612   -9.5046E-24
  53877.679   -9.5980E-24
  53877.746   -5.0015E-24
  53877.814   -5.0962E-24
  53877.881   -1.1050E-23
  53877.949   -1.4654E-23
  53878.016   -1.1248E-23
  53878.083   -5.4714E-24
  53878.151   -7.9161E-24
  53878.218   -1.0360E-23
  53878.286   -1.2794E-23
  53878.353   -2.5708E-23
  53878.420   -3.8518E-23
  53878.488   -3.5156E-23
  53878.555   -4.1010E-23
  53878.622   -4.6843E-23
  53878.690   -4.1200E-23
  53878.757   -3.0912E-23
  53878.825   -2.6372E-23
  53878.892   -2.9944E-23
  53878.959   -2.8880E-23
  53879.027   -2.7817E-23
  53879.094   -3.8315E-23
  53879.162   -3.9563E-23
  53879.229   -4.3107E-23
  53879.296   -5.9203E-23
  53879.364   -6.3838E-23
  53879.431   -5.2551E-23
  53879.498   -4.6925E-23
  53879.566   -4.3581E-23
  53879.633   -3.9074E-23
  53879.701   -2.9924E-23
  53879.768   -2.1881E-23
  53879.835   -2.0814E-23
  53879.903   -2.3239E-23
  53879.970   -2.6823E-23
  53880.038   -3.0398E-23
  53880.105   -3.3966E-23
  53880.172   -2.9427E-23
  53880.240   -3.4156E-23
  53880.307   -4.0022E-23
  53880.374   -4.5867E-23
  53880.442   -5.1691E-23
  53880.509   -5.0644E-23
  53880.577   -5.0739E-23
  53880.644   -5.4262E-23
  53880.711   -5.0926E-23
  53880.779   -4.8731E-23
  53880.846   -3.8474E-23
  53880.914   -2.3499E-23
  53880.981   -1.6582E-23
  53881.048   -2.2516E-23
  53881.116   -3.3074E-23
  53881.183   -4.7005E-23
  53881.251   -4.9399E-23
  53881.318   -4.6046E-23
  53881.385   -4.9586E-23
  53881.453   -4.2786E-23
  53881.520   -3.0164E-23
  53881.588   -3.2580E-23
  53881.655   -3.2674E-23
  53881.722   -3.3927E-23
  53881.790   -3.9802E-23
  53881.857   -4.5656E-23
  53881.925   -4.2299E-23
  53881.992   -4.5845E-23
  53882.059   -5.6256E-23
  53882.127   -6.2050E-23
  53882.194   -4.6130E-23
  53882.262   -3.1208E-23
  53882.329   -2.0822E-23
  53882.396   -1.9745E-23
  53882.464   -2.5680E-23
  53882.531   -3.1587E-23
  53882.599   -2.5868E-23
  53882.666   -2.3632E-23
  53882.733   -2.4895E-23
  53882.801   -2.2650E-23
  53882.868   -2.1584E-23
  53882.936   -1.9338E-23
  53883.003   -1.8262E-23
  53883.070   -1.9525E-23
  53883.138   -2.5460E-23
  53883.205   -3.6013E-23
  53883.273   -4.0735E-23
  53883.340   -4.4290E-23
  53883.407   -5.7005E-23
  53883.475   -7.4150E-23
  53883.542   -8.6633E-23
  53883.610   -8.2238E-23
  53883.677   -7.6702E-23
  53883.744   -6.7735E-23
  53883.812   -6.3280E-23
  53883.879   -5.7673E-23
  53883.947   -4.5143E-23
  53884.014   -4.4085E-23
  53884.081   -3.4928E-23
  53884.149   -3.3864E-23
  53884.216   -3.3957E-23
  53884.284   -2.7078E-23
  53884.351   -2.9501E-23
  53884.418   -3.1915E-23
  53884.486   -2.9690E-23
  53884.553   -2.6283E-23
  53884.621   -1.8188E-23
  53884.688   -1.1231E-23
  53884.755   -4.2447E-24
  53884.823   -7.8946E-25
  53884.890   -6.8029E-24
  53884.958   -1.5148E-23
  53885.025   -2.4611E-23
  53885.092   -3.4029E-23
  53885.160   -4.4544E-23
  53885.227   -4.9247E-23
  53885.295   -5.7378E-23
  53885.362   -5.7471E-23
  53885.429   -4.2614E-23
  53885.497   -2.5279E-23
  53885.564   -6.5627E-24
  53885.632   -4.2975E-24
  53885.699   -6.7510E-24
  53885.767   -8.0357E-24
  53885.834   -1.2849E-23
  53885.901   -2.9353E-23
  53885.969   -4.6836E-23
  53886.036   -5.6131E-23
  53886.104   -6.1946E-23
  53886.171   -4.9425E-23
  53886.238   -4.0281E-23
  53886.306   -2.7587E-23
  53886.373   -1.8311E-23
  53886.441   -2.4265E-23
  53886.508   -4.0661E-23
  53886.575   -5.3443E-23
  53886.643   -6.0417E-23
  53886.710   -5.2484E-23
  53886.778   -3.6401E-23
  53886.845   -2.1319E-23
  53886.913   -2.0244E-23
  53886.980   -2.2687E-23
  53887.047   -2.0431E-23
  53887.115   -2.1705E-23
  53887.182   -2.5309E-23
  53887.250   -2.4234E-23
  53887.317   -2.5497E-23
  53887.384   -2.9100E-23
  53887.452   -3.2695E-23
  53887.519   -3.6279E-23
  53887.587   -3.7539E-23
  53887.654   -3.9956E-23
  53887.722   -4.0051E-23
  53887.789   -4.3621E-23
  53887.856   -3.9080E-23
  53887.924   -3.6853E-23
  53887.991   -4.0430E-23
  53888.059   -3.4712E-23
  53888.126   -3.7135E-23
  53888.193   -3.9553E-23
  53888.261   -4.0809E-23
  53888.328   -2.1057E-23
  53888.396   -8.1814E-24
  53888.463    3.5102E-26
  53888.531    5.9004E-24
  53888.598   -4.9131E-24
  53888.665   -1.3287E-23
  53888.733   -1.5751E-23
  53888.800   -2.2895E-23
  53888.868   -3.0020E-23
  53888.935   -2.3093E-23
  53889.002   -1.3766E-23
  53889.070   -1.2681E-23
  53889.137   -1.7495E-23
  53889.205   -2.2299E-23
  53889.272   -2.3563E-23
  53889.340   -3.3018E-23
  53889.407   -4.2422E-23
  53889.474   -4.3676E-23
  53889.542   -3.6799E-23
  53889.609   -3.2233E-23
  53889.677   -2.2958E-23
  53889.744   -2.4231E-23
  53889.812   -3.3686E-23
  53889.879   -4.0765E-23
  53889.946   -4.4340E-23
  53890.014   -4.7908E-23
  53890.081   -5.3775E-23
  53890.149   -5.3871E-23
  53890.216   -5.2812E-23
  53890.284   -4.9445E-23
  53890.351   -4.8383E-23
  53890.418   -4.5004E-23
  53890.486   -4.3941E-23
  53890.553   -4.1713E-23
  53890.621   -3.0154E-23
  53890.688   -2.3207E-23
  53890.756   -1.8592E-23
  53890.823   -1.5145E-23
  53890.890   -1.6419E-23
  53890.958   -2.0054E-23
  53891.025   -2.8377E-23
  53891.093   -2.4952E-23
  53891.160   -1.4435E-23
  53891.228   -5.0501E-24
  53891.295   -3.9536E-24
  53891.362   -4.6705E-25
  53891.430    5.4182E-24
  53891.497    2.9247E-24
  53891.565   -1.0270E-23
  53891.632   -2.3363E-23
  53891.700   -2.4628E-23
  53891.767   -3.0592E-23
  53891.834   -2.2465E-23
  53891.902   -1.9030E-23
  53891.969   -2.7363E-23
  53892.037   -2.8628E-23
  53892.104   -2.8722E-23
  53892.172   -3.5836E-23
  53892.239   -4.9883E-23
  53892.306   -5.4599E-23
  53892.374   -5.3541E-23
  53892.441   -3.8551E-23
  53892.509   -1.2786E-23
  53892.576    1.2210E-23
  53892.644    1.9356E-23
  53892.711    1.6842E-23
  53892.778    2.4019E-23
  53892.846    2.1494E-23
  53892.913    1.7770E-23
  53892.981    1.7676E-23
  53893.048    2.1212E-23
  53893.116    1.8697E-23
  53893.183    6.5440E-24
  53893.250    1.6605E-24
  53893.318    5.1558E-24
  53893.385    9.8723E-24
  53893.453    2.1858E-23
  53893.520    2.9054E-23
  53893.588    3.1399E-23
  53893.655    2.5216E-23
  53893.723    2.2691E-23
  53893.790    2.6238E-23
  53893.857    4.0814E-23
  53893.925    4.5669E-23
  53893.992    4.3076E-23
  53894.060    3.9301E-23
  53894.127    2.6978E-23
  53894.195    2.3233E-23
  53894.262    1.3460E-23
  53894.330    7.3348E-24
  53894.397    1.2413E-24
  53894.464   -1.1972E-23
  53894.532   -1.6817E-23
  53894.599   -1.4540E-23
  53894.667   -1.3445E-23
  53894.734   -1.2359E-23
  53894.802   -5.3033E-24
  53894.869   -3.0168E-24
  53894.936   -1.1450E-23
  53895.004   -2.1035E-23
  53895.071   -2.5848E-23
  53895.139   -3.0643E-23
  53895.206   -2.7217E-23
  53895.274   -2.4951E-23
  53895.341   -1.7955E-23
  53895.409   -8.5496E-24
  53895.476   -3.8631E-24
  53895.543    5.6334E-24
  53895.611    1.1559E-23
  53895.678    7.8452E-24
  53895.746    1.7405E-24
  53895.813    1.6470E-24
  53895.881    1.5523E-24
  53895.948   -4.5312E-24
  53896.016    1.6406E-25
  53896.083    1.0891E-23
  53896.150    1.5637E-23
  53896.218    1.0702E-23
  53896.285    2.1789E-24
  53896.353   -9.8758E-24
  53896.420   -1.8289E-23
  53896.488   -2.5484E-23
  53896.555   -2.7928E-23
  53896.623   -3.1562E-23
  53896.690   -3.6346E-23
  53896.758   -3.7610E-23
  53896.825   -4.0054E-23
  53896.892   -4.0147E-23
  53896.960   -3.9072E-23
  53897.027   -4.0336E-23
  53897.095   -3.6920E-23
  53897.162   -1.6964E-23
  53897.230   -3.9486E-24
  53897.297    5.5679E-24
  53897.365    1.6353E-23
  53897.432    1.7470E-23
  53897.499    7.6962E-24
  53897.567    6.3915E-24
  53897.634    1.1128E-23
  53897.702    9.8233E-24
  53897.769    1.2150E-23
  53897.837    1.8115E-23
  53897.904    2.5322E-23
  53897.972    3.3787E-23
  53898.039    4.6043E-23
  53898.107    5.5859E-23
  53898.174    6.0775E-23
  53898.241    5.5692E-23
  53898.309    5.5607E-23
  53898.376    5.0524E-23
  53898.444    4.7939E-23
  53898.511    5.4055E-23
  53898.579    6.0171E-23
  53898.646    6.1287E-23
  53898.714    6.5002E-23
  53898.781    7.3719E-23
  53898.849    9.0034E-23
  53898.916    1.0405E-22
  53898.983    1.2197E-22
  53899.051    1.4548E-22
  53899.118    1.6260E-22
  53899.186    1.7321E-22
  53899.253    1.8123E-22
  53899.321    1.9605E-22
  53899.388    2.0686E-22
  53899.456    2.1638E-22
  53899.523    2.3019E-22
  53899.591    2.5111E-22
  53899.658    2.8233E-22
  53899.726    3.1274E-22
  53899.793    3.2446E-22
  53899.860    3.2887E-22
  53899.928    3.2579E-22
  53899.995    3.2421E-22
  53900.063    3.1962E-22
  53900.130    3.1074E-22
  53900.198    3.0775E-22
  53900.265    3.1057E-22
  53900.333    3.1049E-22
  53900.400    3.1620E-22
  53900.468    3.2502E-22
  53900.535    3.2193E-22
  53900.603    3.1445E-22
  53900.670    2.9687E-22
  53900.737    2.6938E-22
  53900.805    2.5500E-22
  53900.872    2.5491E-22
  53900.940    2.4493E-22
  53901.007    2.3225E-22
  53901.075    2.1546E-22
  53901.142    2.0168E-22
  53901.210    1.8929E-22
  53901.277    1.7561E-22
  53901.345    1.6342E-22
  53901.412    1.6204E-22
  53901.480    1.6726E-22
  53901.547    1.6047E-22
  53901.614    1.4449E-22
  53901.682    1.3250E-22
  53901.749    1.2332E-22
  53901.817    1.0894E-22
  53901.884    9.3453E-23
  53901.952    8.3168E-23
  53902.019    7.4184E-23
  53902.087    7.0300E-23
  53902.154    6.5116E-23
  53902.222    5.3831E-23
  53902.289    4.1248E-23
  53902.357    3.4963E-23
  53902.424    3.3670E-23
  53902.492    3.8495E-23
  53902.559    3.4711E-23
  53902.627    2.2337E-23
  53902.694    1.7363E-23
  53902.761    1.4830E-23
  53902.829    1.4735E-23
  53902.896    1.3422E-23
  53902.964    7.2569E-24
  53903.031    1.0803E-23
  53903.099    1.6789E-23
  53903.166    4.5552E-24
  53903.234   -7.5996E-24
  53903.301   -8.8930E-24
  53903.369   -4.1778E-24
  53903.436    1.7487E-24
  53903.504   -7.9760E-24
  53903.571   -2.2409E-23
  53903.639   -3.3184E-23
  53903.706   -3.7998E-23
  53903.774   -3.3372E-23
  53903.841   -2.1606E-23
  53903.908   -1.3339E-23
  53903.976   -1.3434E-23
  53904.043   -1.9508E-23
  53904.111   -2.5552E-23
  53904.178   -3.3936E-23
  53904.246   -3.6401E-23
  53904.313   -3.8854E-23
  53904.381   -3.5409E-23
  53904.448   -2.1262E-23
  53904.516   -1.2997E-23
  53904.583   -9.5004E-24
  53904.651   -7.1851E-24
  53904.718   -1.4479E-23
  53904.786   -1.4573E-23
  53904.853   -2.5407E-23
  53904.921   -3.9702E-23
  53904.988   -5.2705E-23
  53905.056   -4.5770E-23
  53905.123   -2.9353E-23
  53905.191   -2.2308E-23
  53905.258   -2.3601E-23
  53905.326   -2.8446E-23
  53905.393   -3.6830E-23
  53905.460   -3.4563E-23
  53905.528   -3.3478E-23
  53905.595   -3.5931E-23
  53905.663   -3.4846E-23
  53905.730   -3.4940E-23
  53905.798   -5.0334E-23
  53905.865   -7.4833E-23
  53905.933   -9.3273E-23
  53906.000   -1.0246E-22
  53906.068   -9.9151E-23
  53906.135   -8.3264E-23
  53906.203   -6.9533E-23
  53906.270   -6.0341E-23
  53906.338   -5.4607E-23
  53906.405   -5.3531E-23
  53906.473   -5.3625E-23
  53906.540   -5.4889E-23
  53906.608   -5.3814E-23
  53906.675   -4.0997E-23
  53906.743   -2.8072E-23
  53906.810   -1.8625E-23
  53906.878   -1.3930E-23
  53906.945   -8.0135E-24
  53907.013   -5.6982E-24
  53907.080   -5.7917E-24
  53907.148   -8.2964E-24
  53907.215   -1.6800E-23
  53907.283   -2.8825E-23
  53907.350   -2.5348E-23
  53907.417   -2.9012E-23
  53907.485   -2.4346E-23
  53907.552   -1.4870E-23
  53907.620   -1.6165E-23
  53907.687   -2.2248E-23
  53907.755   -2.9493E-23
  53907.822   -2.6016E-23
  53907.890   -1.8941E-23
  53907.957   -1.5444E-23
  53908.025   -1.3139E-23
  53908.092   -4.8026E-24
  53908.160   -9.7174E-24
  53908.227   -1.9421E-23
  53908.295   -3.0256E-23
  53908.362   -3.9829E-23
  53908.430   -4.3464E-23
  53908.497   -3.8837E-23
  53908.565   -3.3012E-23
  53908.632   -2.3575E-23
  53908.700   -1.5290E-23
  53908.767   -2.7344E-23
  53908.835   -5.1088E-23
  53908.902   -6.8695E-23
  53908.970   -7.5740E-23
  53909.037   -6.7724E-23
  53909.105   -5.1475E-23
  53909.172   -3.2678E-23
  53909.240   -1.9643E-23
  53909.307   -1.1337E-23
  53909.375   -1.7441E-23
  53909.442   -3.0675E-23
  53909.510   -4.0259E-23
  53909.577   -5.5653E-23
  53909.645   -6.3928E-23
  53909.712   -5.7011E-23
  53909.780   -4.7716E-23
  53909.847   -3.9549E-23
  53909.915   -3.7284E-23
  53909.982   -3.7378E-23
  53910.050   -3.3912E-23
  53910.117   -2.4476E-23
  53910.185   -2.5761E-23
  53910.252   -2.3464E-23
  53910.320   -1.3959E-23
  53910.387   -6.8222E-24
  53910.455   -2.0769E-24
  53910.522   -9.4304E-24
  53910.590   -1.6745E-23
  53910.657   -1.5639E-23
  53910.725   -2.5323E-23
  53910.792   -3.0197E-23
  53910.860   -3.5052E-23
  53910.927   -4.2255E-23
  53910.995   -5.4130E-23
  53911.062   -5.4223E-23
  53911.130   -5.9008E-23
  53911.197   -6.7275E-23
  53911.265   -7.4340E-23
  53911.332   -7.6751E-23
  53911.400   -6.6394E-23
  53911.467   -5.8318E-23
  53911.535   -5.3723E-23
  53911.602   -4.7926E-23
  53911.670   -4.4481E-23
  53911.737   -4.4574E-23
  53911.805   -4.9389E-23
  53911.872   -4.4763E-23
  53911.940   -3.8947E-23
  53912.007   -3.9041E-23
  53912.075   -4.2685E-23
  53912.142   -4.7509E-23
  53912.210   -4.5244E-23
  53912.277   -5.2407E-23
  53912.345   -5.3682E-23
  53912.412   -5.0245E-23
  53912.480   -4.5620E-23
  53912.547   -3.6234E-23
  53912.615   -1.5988E-23
  53912.682   -3.9918E-24
  53912.750   -1.0147E-23
  53912.817   -2.7080E-23
  53912.885   -3.7895E-23
  53912.952   -4.1558E-23
  53913.020   -3.9273E-23
  53913.087   -3.3426E-23
  53913.155   -2.8751E-23
  53913.222   -3.7185E-23
  53913.290   -5.2659E-23
  53913.357   -7.2642E-23
  53913.425   -7.8539E-23
  53913.492   -7.8633E-23
  53913.560   -7.1764E-23
  53913.627   -5.6659E-23
  53913.695   -5.0874E-23
  53913.762   -4.8607E-23
  53913.830   -4.5162E-23
  53913.897   -3.9326E-23
  53913.965   -3.1080E-23
  53914.032   -3.2374E-23
  53914.100   -3.6039E-23
  53914.167   -3.1362E-23
  53914.235   -2.6677E-23
  53914.302   -2.3170E-23
  53914.370   -2.0865E-23
  53914.437   -1.6139E-23
  53914.505   -2.2253E-23
  53914.573   -3.4328E-23
  53914.640   -4.5111E-23
  53914.708   -4.2836E-23
  53914.775   -3.5800E-23
  53914.843   -3.7084E-23
  53914.910   -3.5988E-23
  53914.978   -2.6523E-23
  53915.045   -2.1816E-23
  53915.113   -1.5891E-23
  53915.180   -1.2354E-23
  53915.248   -1.5290E-24
  53915.315   -4.0249E-25
  53915.383   -1.7172E-24
  53915.450   -4.2407E-24
  53915.518   -1.6455E-23
  53915.585   -3.3359E-23
  53915.653   -4.8904E-23
  53915.720   -6.1957E-23
  53915.788   -6.3222E-23
  53915.855   -5.6265E-23
  53915.923   -5.2830E-23
  53915.990   -4.7014E-23
  53916.058   -3.8798E-23
  53916.125   -3.8892E-23
  53916.193   -3.5406E-23
  53916.260   -3.0720E-23
  53916.328   -2.1215E-23
  53916.395   -2.0108E-23
  53916.463   -2.6213E-23
  53916.530   -3.5886E-23
  53916.598   -4.5501E-23
  53916.666   -4.9146E-23
  53916.733   -5.5149E-23
  53916.801   -6.4644E-23
  53916.868   -7.2928E-23
  53916.936   -6.8352E-23
  53917.003   -5.9066E-23
  53917.071   -6.0330E-23
  53917.138   -5.4544E-23
  53917.206   -5.2279E-23
  53917.273   -5.8262E-23
  53917.341   -5.6007E-23
  53917.408   -5.3740E-23
  53917.476   -5.2655E-23
  53917.543   -5.3929E-23
  53917.611   -5.9913E-23
  53917.678   -6.9397E-23
  53917.746   -7.0662E-23
  53917.813   -6.6075E-23
  53917.881   -5.5590E-23
  53917.948   -4.5023E-23
  53918.016   -4.5118E-23
  53918.083   -4.9961E-23
  53918.151   -5.5966E-23
  53918.219   -5.4881E-23
  53918.286   -6.3214E-23
  53918.354   -5.9789E-23
  53918.421   -5.3983E-23
  53918.489   -5.7617E-23
  53918.556   -6.7121E-23
  53918.624   -7.3066E-23
  53918.691   -7.1989E-23
  53918.759   -6.7404E-23
  53918.826   -5.8097E-23
  53918.894   -5.8192E-23
  53918.961   -6.0645E-23
  53919.029   -5.4840E-23
  53919.096   -5.3754E-23
  53919.164   -5.8568E-23
  53919.231   -5.8662E-23
  53919.299   -5.1667E-23
  53919.367   -4.1071E-23
  53919.434   -3.2795E-23
  53919.502   -3.1689E-23
  53919.569   -3.6573E-23
  53919.637   -5.5698E-23
  53919.704   -6.8731E-23
  53919.772   -7.9343E-23
  53919.839   -8.2925E-23
  53919.907   -8.9975E-23
  53919.974   -9.6994E-23
  53920.042   -9.5937E-23
  53920.109   -8.9103E-23
  53920.177   -8.1077E-23
  53920.244   -7.4174E-23
  53920.312   -6.3719E-23
  53920.380   -5.2003E-23
  53920.447   -5.2097E-23
  53920.515   -6.1652E-23
  53920.582   -7.2315E-23
  53920.650   -8.0579E-23
  53920.717   -9.4581E-23
  53920.785   -9.5830E-23
  53920.852   -8.5513E-23
  53920.920   -8.7928E-23
  53920.987   -9.2652E-23
  53921.055   -8.5799E-23
  53921.122   -7.6578E-23
  53921.190   -6.7303E-23
  53921.257   -6.3876E-23
  53921.325   -7.2191E-23
  53921.393   -7.3456E-23
  53921.460   -7.8219E-23
  53921.528   -7.9484E-23
  53921.595   -6.9047E-23
  53921.663   -5.8542E-23
  53921.730   -5.2726E-23
  53921.798   -5.4000E-23
  53921.865   -5.8834E-23
  53921.933   -6.8349E-23
  53922.000   -6.7272E-23
  53922.068   -5.6747E-23
  53922.135   -5.3290E-23
  53922.203   -5.6945E-23
  53922.271   -5.7040E-23
  53922.338   -7.0093E-23
  53922.406   -8.5377E-23
  53922.473   -9.0114E-23
  53922.541   -8.6728E-23
  53922.608   -7.6330E-23
  53922.676   -6.1154E-23
  53922.743   -5.2958E-23
  53922.811   -5.0683E-23
  53922.878   -5.4336E-23
  53922.946   -5.7991E-23
  53923.013   -5.9264E-23
  53923.081   -7.1139E-23
  53923.149   -7.4754E-23
  53923.216   -6.7807E-23
  53923.284   -5.9642E-23
  53923.351   -5.2625E-23
  53923.419   -3.3600E-23
  53923.486   -3.1284E-23
  53923.554   -4.6958E-23
  53923.621   -5.6572E-23
  53923.689   -6.2576E-23
  53923.756   -5.7940E-23
  53923.824   -5.0915E-23
  53923.892   -4.3859E-23
  53923.959   -4.7533E-23
  53924.027   -5.2388E-23
  53924.094   -5.4861E-23
  53924.162   -5.7326E-23
  53924.229   -5.9789E-23
  53924.297   -5.6334E-23
  53924.364   -6.1168E-23
  53924.432   -6.4802E-23
  53924.500   -6.1357E-23
  53924.567   -5.6710E-23
  53924.635   -4.7295E-23
  53924.702   -4.0209E-23
  53924.770   -2.9473E-23
  53924.837   -2.5947E-23
  53924.905   -3.2082E-23
  53924.972   -4.2985E-23
  53925.040   -6.6840E-23
  53925.107   -8.4521E-23
  53925.175   -8.2288E-23
  53925.243   -6.4763E-23
  53925.310   -4.1066E-23
  53925.378   -2.7921E-23
  53925.445   -3.0424E-23
  53925.513   -4.3749E-23
  53925.580   -5.9323E-23
  53925.648   -7.0057E-23
  53925.715   -8.3041E-23
  53925.783   -7.8466E-23
  53925.851   -6.6800E-23
  53925.918   -6.4534E-23
  53925.986   -6.1079E-23
  53926.053   -5.8802E-23
  53926.121   -6.8367E-23
  53926.188   -7.6690E-23
  53926.256   -8.0295E-23
  53926.323   -7.8048E-23
  53926.391   -7.4623E-23
  53926.459   -6.1748E-23
  53926.526   -5.1141E-23
  53926.594   -4.7656E-23
  53926.661   -4.2970E-23
  53926.729   -4.4264E-23
  53926.796   -5.0338E-23
  53926.864   -6.5863E-23
  53926.931   -8.2416E-23
  53926.999   -8.1341E-23
  53927.067   -6.9695E-23
  53927.134   -4.9619E-23
  53927.202   -4.1324E-23
  53927.269   -4.6217E-23
  53927.337   -5.4672E-23
  53927.404   -5.7145E-23
  53927.472   -5.1280E-23
  53927.539   -4.0604E-23
  53927.607   -3.1058E-23
  53927.675   -2.8733E-23
  53927.742   -4.0887E-23
  53927.810   -5.6531E-23
  53927.877   -7.3185E-23
  53927.945   -8.3849E-23
  53928.012   -8.0423E-23
  53928.080   -8.0528E-23
  53928.147   -8.1791E-23
  53928.215   -8.7729E-23
  53928.283   -9.5971E-23
  53928.350   -9.2579E-23
  53928.418   -7.6299E-23
  53928.485   -6.4602E-23
  53928.553   -4.9217E-23
  53928.620   -5.4091E-23
  53928.688   -6.2515E-23
  53928.756   -6.6160E-23
  53928.823   -6.2703E-23
  53928.891   -4.9698E-23
  53928.958   -4.5002E-23
  53929.026   -4.8686E-23
  53929.093   -5.7140E-23
  53929.161   -5.6045E-23
  53929.228   -5.4948E-23
  53929.296   -5.3853E-23
  53929.364   -5.1558E-23
  53929.431   -6.0001E-23
  53929.499   -6.8396E-23
  53929.566   -7.3209E-23
  53929.634   -7.2124E-23
  53929.701   -6.3937E-23
  53929.769   -5.3322E-23
  53929.837   -5.2227E-23
  53929.904   -5.3510E-23
  53929.972   -5.5995E-23
  53930.039   -5.9669E-23
  53930.107   -5.3803E-23
  53930.174   -4.3107E-23
  53930.242   -3.1132E-23
  53930.310   -2.5156E-23
  53930.377   -2.6470E-23
  53930.445   -3.6254E-23
  53930.512   -5.4368E-23
  53930.580   -6.1613E-23
  53930.647   -5.8136E-23
  53930.715   -5.2261E-23
  53930.783   -5.3556E-23
  53930.850   -5.2459E-23
  53930.918   -5.3744E-23
  53930.985   -5.3837E-23
  53931.053   -5.6322E-23
  53931.120   -5.7616E-23
  53931.188   -6.3660E-23
  53931.256   -6.3755E-23
  53931.323   -4.7128E-23
  53931.391   -4.0003E-23
  53931.458   -4.7317E-23
  53931.526   -5.3401E-23
  53931.593   -6.0665E-23
  53931.661   -6.6700E-23
  53931.729   -5.8464E-23
  53931.796   -4.7798E-23
  53931.864   -5.3883E-23
  53931.931   -6.2326E-23
  53931.999   -6.4801E-23
  53932.066   -6.2514E-23
  53932.134   -5.9039E-23
  53932.202   -5.1964E-23
  53932.269   -4.0037E-23
  53932.337   -3.4082E-23
  53932.404   -3.1745E-23
  53932.472   -3.3060E-23
  53932.539   -3.9204E-23
  53932.607   -5.0138E-23
  53932.675   -5.7413E-23
  53932.742   -5.8707E-23
  53932.810   -5.6411E-23
  53932.877   -4.6915E-23
  53932.945   -3.8569E-23
  53933.013   -3.0174E-23
  53933.080   -2.0518E-23
  53933.148   -1.9392E-23
  53933.215   -2.4376E-23
  53933.283   -3.1771E-23
  53933.350   -3.7924E-23
  53933.418   -4.1649E-23
  53933.486   -4.0534E-23
  53933.553   -3.9427E-23
  53933.621   -4.5552E-23
  53933.688   -4.4445E-23
  53933.756   -3.7290E-23
  53933.823   -2.7663E-23
  53933.891   -2.1658E-23
  53933.959   -2.0533E-23
  53934.026   -1.9396E-23
  53934.094   -2.8051E-23
  53934.161   -3.9075E-23
  53934.229   -4.8819E-23
  53934.297   -4.6504E-23
  53934.364   -4.1778E-23
  53934.432   -3.4602E-23
  53934.499   -1.8836E-23
  53934.567   -1.1560E-23
  53934.634   -1.2884E-23
  53934.702   -2.6469E-23
  53934.770   -4.2343E-23
  53934.837   -5.3277E-23
  53934.905   -5.5772E-23
  53934.972   -5.9455E-23
  53935.040   -5.4760E-23
  53935.108   -5.4855E-23
  53935.175   -6.6888E-23
  53935.243   -6.5803E-23
  53935.310   -5.9926E-23
  53935.378   -5.8831E-23
  53935.446   -5.7726E-23
  53935.513   -5.4229E-23
  53935.581   -5.7914E-23
  53935.648   -6.1597E-23
  53935.716   -5.5712E-23
  53935.783   -5.2206E-23
  53935.851   -4.8690E-23
  53935.919   -4.2755E-23
  53935.986   -4.0429E-23
  53936.054   -3.5673E-23
  53936.121   -4.3037E-23
  53936.189   -5.7571E-23
  53936.257   -6.9606E-23
  53936.324   -7.9180E-23
  53936.392   -8.2814E-23
  53936.459   -8.5268E-23
  53936.527   -6.7603E-23
  53936.595   -6.0537E-23
  53936.662   -6.3021E-23
  53936.730   -5.2336E-23
  53936.797   -5.1229E-23
  53936.865   -5.7324E-23
  53936.932   -6.4597E-23
  53937.000   -7.4212E-23
  53937.068   -7.1937E-23
  53937.135   -6.8460E-23
  53937.203   -6.3785E-23
  53937.270   -6.1488E-23
  53937.338   -6.1583E-23
  53937.406   -6.5268E-23
  53937.473   -7.8431E-23
  53937.541   -8.2076E-23
  53937.608   -7.6250E-23
  53937.676   -6.9224E-23
  53937.744   -6.9319E-23
  53937.811   -6.9413E-23
  53937.879   -6.4737E-23
  53937.946   -6.4831E-23
  53938.014   -6.6125E-23
  53938.082   -5.7840E-23
  53938.149   -5.4334E-23
  53938.217   -6.6408E-23
  53938.284   -7.9572E-23
  53938.352   -9.2637E-23
  53938.420   -1.0209E-22
  53938.487   -9.6345E-23
  53938.555   -8.5860E-23
  53938.622   -8.3593E-23
  53938.690   -8.1328E-23
  53938.758   -7.3122E-23
  53938.825   -7.0836E-23
  53938.893   -7.4501E-23
  53938.960   -8.0524E-23
  53939.028   -9.0059E-23
  53939.096   -9.3684E-23
  53939.163   -9.3777E-23
  53939.231   -8.4452E-23
  53939.298   -6.3145E-23
  53939.366   -3.5470E-23
  53939.434   -2.3335E-23
  53939.501   -1.4808E-23
  53939.569   -1.3030E-24
  53939.636   -8.6456E-26
  53939.704   -1.1371E-23
  53939.772   -2.3806E-23
  53939.839   -3.4919E-23
  53939.907   -4.4734E-23
  53939.974   -4.7248E-23
  53940.042   -4.6132E-23
  53940.110   -4.5017E-23
  53940.177   -3.6611E-23
  53940.245   -3.4265E-23
  53940.312   -4.7729E-23
  53940.380   -4.9033E-23
  53940.448   -6.2368E-23
  53940.515   -6.7252E-23
  53940.583   -6.8546E-23
  53940.650   -6.3850E-23
  53940.718   -4.9505E-23
  53940.786   -3.6249E-23
  53940.853   -3.2683E-23
  53940.921   -3.3998E-23
  53940.989   -4.2622E-23
  53941.056   -5.3606E-23
  53941.124   -5.2501E-23
  53941.191   -4.4114E-23
  53941.259   -3.4469E-23
  53941.327   -2.8453E-23
  53941.394   -1.7477E-23
  53941.462   -1.3862E-23
  53941.529   -2.2595E-23
  53941.597   -1.7760E-23
  53941.665   -2.2785E-23
  53941.732   -3.6358E-23
  53941.800   -4.3763E-23
  53941.867   -4.5066E-23
  53941.935   -3.6641E-23
  53942.003   -3.5516E-23
  53942.070   -2.4589E-23
  53942.138   -2.3454E-23
  53942.205   -2.3547E-23
  53942.273   -2.4872E-23
  53942.341   -3.3557E-23
  53942.408   -4.0970E-23
  53942.476   -3.1295E-23
  53942.544   -2.5250E-23
  53942.611   -1.5473E-23
  53942.679   -8.1780E-24
  53942.746   -6.9615E-24
  53942.814   -9.5462E-24
  53942.882   -8.4310E-24
  53942.949   -9.7145E-24
  53943.017   -3.5992E-24
  53943.084    3.8173E-24
  53943.152   -6.2674E-24
  53943.220   -1.5052E-23
  53943.287   -2.8756E-23
  53943.355   -2.7620E-23
  53943.423   -3.3855E-23
  53943.490   -3.5169E-23
  53943.558   -2.5453E-23
  53943.625   -2.4317E-23
  53943.693   -1.7001E-23
  53943.761   -5.9262E-24
  53943.828    1.9031E-25
  53943.896    2.6056E-24
  53943.963   -6.1779E-24
  53944.031   -1.7473E-23
  53944.099   -2.1277E-23
  53944.166   -2.0141E-23
  53944.234   -2.2706E-23
  53944.302   -2.4030E-23
  53944.369   -2.4124E-23
  53944.437   -1.8049E-23
  53944.504   -1.9520E-24
  53944.572    7.9633E-24
  53944.640    1.0379E-23
  53944.707    2.7951E-24
  53944.775    7.7104E-24
  53944.843    1.8926E-23
  53944.910    2.5242E-23
  53944.978    3.1457E-23
  53945.045    4.0374E-23
  53945.113    4.1589E-23
  53945.181    4.0204E-23
  53945.248    4.2621E-23
  53945.316    4.5136E-23
  53945.383    4.3753E-23
  53945.451    4.7568E-23
  53945.519    5.3883E-23
  53945.586    6.5500E-23
  53945.654    7.0715E-23
  53945.722    7.9730E-23
  53945.789    8.4947E-23
  53945.857    8.8862E-23
  53945.924    1.0208E-22
  53945.992    1.2349E-22
  53946.060    1.4671E-22
  53946.127    1.6733E-22
  53946.195    1.7844E-22
  53946.263    1.8686E-22
  53946.330    1.9517E-22
  53946.398    2.1229E-22
  53946.465    2.3090E-22
  53946.533    2.4402E-22
  53946.601    2.6004E-22
  53946.668    2.8385E-22
  53946.736    3.0497E-22
  53946.804    3.2168E-22
  53946.871    3.4020E-22
  53946.939    3.5731E-22
  53947.007    3.5883E-22
  53947.074    3.5245E-22
  53947.142    3.4296E-22
  53947.209    3.3818E-22
  53947.277    3.3959E-22
  53947.345    3.4111E-22
  53947.412    3.5192E-22
  53947.480    3.5974E-22
  53947.548    3.4866E-22
  53947.615    3.2517E-22
  53947.683    3.1739E-22
  53947.750    3.1730E-22
  53947.818    3.1262E-22
  53947.886    3.0483E-22
  53947.953    2.9715E-22
  53948.021    2.9407E-22
  53948.089    2.8938E-22
  53948.156    2.8180E-22
  53948.224    2.6671E-22
  53948.292    2.4883E-22
  53948.359    2.2394E-22
  53948.427    2.0796E-22
  53948.494    2.1218E-22
  53948.562    2.1929E-22
  53948.630    2.2501E-22
  53948.697    2.2492E-22
  53948.765    2.0464E-22
  53948.833    1.8175E-22
  53948.900    1.7607E-22
  53948.968    1.6759E-22
  53949.035    1.6330E-22
  53949.103    1.6732E-22
  53949.171    1.8133E-22
  53949.238    1.9535E-22
  53949.306    1.9526E-22
  53949.374    1.8808E-22
  53949.441    1.8380E-22
  53949.509    1.7381E-22
  53949.577    1.7513E-22
  53949.644    1.7924E-22
  53949.712    1.7496E-22
  53949.780    1.7057E-22
  53949.847    1.8039E-22
  53949.915    1.8451E-22
  53949.982    1.8722E-22
  53950.050    1.9284E-22
  53950.118    1.8985E-22
  53950.185    1.9117E-22
  53950.253    2.0108E-22
  53950.321    2.1540E-22
  53950.388    2.2832E-22
  53950.456    2.4723E-22
  53950.524    2.6495E-22
  53950.591    2.7986E-22
  53950.659    2.9178E-22
  53950.726    2.9930E-22
  53950.794    3.0531E-22
  53950.862    3.2523E-22
  53950.929    3.5014E-22
  53950.997    3.7706E-22
  53951.065    4.0277E-22
  53951.132    4.2559E-22
  53951.200    4.4880E-22
  53951.268    4.8602E-22
  53951.335    5.2954E-22
  53951.403    5.7055E-22
  53951.471    6.1827E-22
  53951.538    6.5978E-22
  53951.606    7.0840E-22
  53951.673    7.5052E-22
  53951.741    8.2803E-22
  53951.809    8.7165E-22
  53951.876    9.2606E-22
  53951.944    9.8398E-22
  53952.012    1.0509E-21
  53952.079    1.1068E-21
  53952.147    1.1747E-21
  53952.215    1.2796E-21
  53952.282    1.3936E-21
  53952.350    1.5015E-21
  53952.418    1.5994E-21
  53952.485    1.6843E-21
  53952.553    1.7622E-21
  53952.621    1.8371E-21
  53952.688    1.8571E-21
  53952.756    1.9310E-21
  53952.824    1.9819E-21
  53952.891    2.0078E-21
  53952.959    1.9977E-21
  53953.026    1.9876E-21
  53953.094    1.9665E-21
  53953.162    1.9355E-21
  53953.229    1.9174E-21
  53953.297    1.8913E-21
  53953.365    1.8422E-21
  53953.432    1.7771E-21
  53953.500    1.7000E-21
  53953.568    1.5400E-21
  53953.635    1.4709E-21
  53953.703    1.4068E-21
  53953.771    1.3277E-21
  53953.838    1.2406E-21
  53953.906    1.1625E-21
  53953.974    1.1014E-21
  53954.041    1.0314E-21
  53954.109    9.7428E-22
  53954.177    9.1920E-22
  53954.244    8.5471E-22
  53954.312    7.6723E-22
  53954.380    7.0654E-22
  53954.447    6.6346E-22
  53954.515    6.2897E-22
  53954.582    5.9349E-22
  53954.650    5.4621E-22
  53954.718    5.0192E-22
  53954.785    4.6064E-22
  53954.853    4.2865E-22
  53954.921    4.0387E-22
  53954.988    3.7138E-22
  53955.056    3.4590E-22
  53955.124    3.2232E-22
  53955.191    2.9913E-22
  53955.259    2.7475E-22
  53955.327    2.5666E-22
  53955.394    2.4478E-22
  53955.462    2.2989E-22
  53955.530    2.1241E-22
  53955.597    1.9933E-22
  53955.665    1.8924E-22
  53955.733    1.8196E-22
  53955.800    1.7907E-22
  53955.868    1.6769E-22
  53955.936    1.5770E-22
  53956.003    1.5482E-22
  53956.071    1.3944E-22
  53956.139    1.2835E-22
  53956.206    1.2277E-22
  53956.274    1.2268E-22
  53956.342    1.2940E-22
  53956.409    1.1701E-22
  53956.477    1.0333E-22
  53956.545    8.3145E-23
  53956.612    6.9761E-23
  53956.680    6.9677E-23
  53956.748    6.9492E-23
  53956.815    6.0209E-23
  53956.883    5.3524E-23
  53956.951    4.4339E-23
  53957.018    4.4256E-23
  53957.086    3.7671E-23
  53957.154    2.9786E-23
  53957.221    2.0703E-23
  53957.289    2.3118E-23
  53957.357    3.4633E-23
  53957.424    3.3250E-23
  53957.492    3.3165E-23
  53957.560    2.9180E-23
  53957.627    1.8797E-23
  53957.695    2.1312E-23
  53957.763    2.6327E-23
  53957.830    3.0144E-23
  53957.898    2.9959E-23
  53957.966    2.0874E-23
  53958.033    7.9909E-24
  53958.101   -4.7938E-24
  53958.169   -1.7479E-23
  53958.236   -3.2562E-23
  53958.304   -4.0037E-23
  53958.372   -3.2732E-23
  53958.439   -1.1515E-23
  53958.507    4.8003E-24
  53958.575    9.8156E-24
  53958.642    2.0321E-24
  53958.710   -1.9453E-23
  53958.778   -3.5757E-23
  53958.845   -4.4501E-23
  53958.913   -4.5836E-23
  53958.981   -4.5930E-23
  53959.048   -4.8484E-23
  53959.116   -4.1179E-23
  53959.184   -3.2643E-23
  53959.251   -2.7727E-23
  53959.319   -1.2811E-23
  53959.387    6.1038E-24
  53959.454    1.2420E-23
  53959.522    7.2356E-24
  53959.590   -1.0649E-23
  53959.657   -3.5733E-23
  53959.725   -5.4347E-23
  53959.793   -6.5442E-23
  53959.860   -6.9186E-23
  53959.928   -6.0750E-23
  53959.996   -3.8715E-23
  53960.063   -2.1338E-23
  53960.131   -1.1423E-23
  53960.199   -9.0080E-24
  53960.266   -9.0914E-24
  53960.334   -1.4176E-23
  53960.402   -1.6861E-23
  53960.469   -2.3144E-23
  53960.537   -2.7029E-23
  53960.605   -2.9614E-23
  53960.673   -3.7199E-23
  53960.740   -4.4702E-23
  53960.808   -5.4647E-23
  53960.876   -6.0861E-23
  53960.943   -6.2185E-23
  53961.011   -5.9830E-23
  53961.079   -6.7254E-23
  53961.146   -6.3688E-23
  53961.214   -5.1533E-23
  53961.282   -3.9277E-23
  53961.349   -2.4441E-23
  53961.417   -2.7026E-23
  53961.485   -3.0910E-23
  53961.552   -4.5844E-23
  53961.620   -5.5789E-23
  53961.688   -5.5883E-23
  53961.755   -5.8427E-23
  53961.823   -6.0971E-23
  53961.891   -6.8396E-23
  53961.958   -7.6990E-23
  53962.026   -7.9504E-23
  53962.094   -7.1109E-23
  53962.161   -5.9003E-23
  53962.229   -5.1727E-23
  53962.297   -4.3192E-23
  53962.365   -2.8407E-23
  53962.432   -2.5990E-23
  53962.500   -2.9775E-23
  53962.568   -4.4810E-23
  53962.635   -5.3533E-23
  53962.703   -5.6088E-23
  53962.771   -5.4953E-23
  53962.838   -5.8726E-23
  53962.906   -6.0051E-23
  53962.974   -5.6466E-23
  53963.041   -5.2879E-23
  53963.109   -6.2784E-23
  53963.177   -6.7769E-23
  53963.244   -6.1752E-23
  53963.312   -5.0797E-23
  53963.380   -4.0971E-23
  53963.448   -3.2356E-23
  53963.515   -3.3740E-23
  53963.583   -3.6324E-23
  53963.651   -3.7609E-23
  53963.718   -4.5193E-23
  53963.786   -5.0227E-23
  53963.854   -4.6612E-23
  53963.921   -4.4236E-23
  53963.989   -4.1830E-23
  53964.057   -3.8215E-23
  53964.124   -3.7099E-23
  53964.192   -3.3383E-23
  53964.260   -3.1068E-23
  53964.327   -3.6151E-23
  53964.395   -3.8736E-23
  53964.463   -4.1321E-23
  53964.531   -3.8906E-23
  53964.598   -3.2789E-23
  53964.666   -2.4074E-23
  53964.734   -2.5459E-23
  53964.801   -3.0542E-23
  53964.869   -2.9427E-23
  53964.937   -2.4512E-23
  53965.004   -1.4495E-23
  53965.072   -5.6797E-24
  53965.140   -1.3364E-23
  53965.207   -2.3548E-23
  53965.275   -3.3733E-23
  53965.343   -4.9947E-23
  53965.411   -5.4982E-23
  53965.478   -4.0186E-23
  53965.546   -2.4070E-23
  53965.614   -1.0255E-23
  53965.681   -6.5385E-24
  53965.749   -6.6233E-24
  53965.817   -8.0080E-24
  53965.884   -1.6991E-23
  53965.952   -1.9576E-23
  53966.020   -1.4661E-23
  53966.088   -1.9846E-23
  53966.155   -2.1129E-23
  53966.223   -9.9139E-24
  53966.291    2.0141E-25
  53966.358    3.9179E-24
  53966.426   -3.7668E-24
  53966.494    2.4485E-24
  53966.561    2.3650E-24
  53966.629    3.5803E-24
  53966.697    2.1955E-24
  53966.764   -9.3879E-24
  53966.832   -2.0873E-23
  53966.900   -2.2157E-23
  53966.968   -2.6042E-23
  53967.035   -2.9926E-23
  53967.103   -3.2510E-23
  53967.171   -2.8895E-23
  53967.238   -2.0179E-23
  53967.306   -2.2763E-23
  53967.374   -2.9148E-23
  53967.442   -2.8033E-23
  53967.509   -2.9316E-23
  53967.577   -2.0601E-23
  53967.645   -9.2857E-24
  53967.712   -6.8692E-24
  53967.780   -5.7539E-24
  53967.848   -3.2386E-24
  53967.915   -1.1022E-23
  53967.983   -9.8068E-24
  53968.051   -1.4992E-23
  53968.119   -8.7763E-24
  53968.186    1.3402E-24
  53968.254   -2.5445E-24
  53968.322   -5.2292E-24
  53968.389   -2.1269E-25
  53968.457   -4.0974E-24
  53968.525   -1.4382E-23
  53968.592   -9.3656E-24
  53968.660   -6.9504E-24
  53968.728   -1.9351E-24
  53968.796    1.0780E-23
  53968.863    1.9797E-23
  53968.931    3.2712E-23
  53968.999    4.4327E-23
  53969.066    4.5644E-23
  53969.134    3.6259E-23
  53969.202    3.3574E-23
  53969.270    4.1390E-23
  53969.337    4.9206E-23
  53969.405    5.3021E-23
  53969.473    5.2937E-23
  53969.540    5.5553E-23
  53969.608    4.4868E-23
  53969.676    2.8984E-23
  53969.744    1.4599E-23
  53969.811    1.3215E-23
  53969.879    2.8308E-24
  53969.947    1.4604E-25
  53970.014    1.3626E-24
  53970.082    3.8778E-24
  53970.150    3.7931E-24
  53970.217    7.5096E-24
  53970.285    8.7249E-24
  53970.353    9.4016E-25
  53970.421    2.0554E-24
  53970.488    1.4872E-23
  53970.556    1.4787E-23
  53970.624    1.6002E-23
  53970.691    1.4619E-23
  53970.759    1.0634E-23
  53970.827    4.0496E-24
  53970.895   -1.1335E-23
  53970.962   -4.2919E-23
  53971.030   -6.1653E-23
  53971.098   -6.9128E-23
  53971.165   -7.5352E-23
  53971.233   -6.8096E-23
  53971.301   -6.3271E-23
  53971.369   -6.0906E-23
  53971.436   -6.2229E-23
  53971.504   -6.7244E-23
  53971.572   -6.8569E-23
  53971.639   -6.8662E-23
  53971.707   -6.0147E-23
  53971.775   -4.4132E-23
  53971.843   -3.1716E-23
  53971.910   -1.9100E-23
  53971.978   -2.4285E-23
  53972.046   -3.1969E-23
  53972.114   -3.3354E-23
  53972.181   -3.2138E-23
  53972.249   -2.7222E-23
  53972.317   -2.1007E-23
  53972.384   -2.1090E-23
  53972.452   -1.4875E-23
  53972.520   -1.2360E-23
  53972.588   -1.6245E-23
  53972.655   -1.6428E-23
  53972.723   -1.9013E-23
  53972.791   -1.7898E-23
  53972.858   -1.7981E-23
  53972.926   -2.4366E-23
  53972.994   -2.6951E-23
  53973.062   -3.0835E-23
  53973.129   -4.6019E-23
  53973.197   -4.9803E-23
  53973.265   -5.2388E-23
  53973.333   -5.0073E-23
  53973.400   -4.2656E-23
  53973.468   -2.6441E-23
  53973.536   -3.0326E-23
  53973.603   -4.5409E-23
  53973.671   -6.1674E-23
  53973.739   -6.9169E-23
  53973.807   -8.1514E-23
  53973.874   -9.3757E-23
  53973.942   -9.3862E-23
  53974.010   -9.3956E-23
  53974.077   -8.5550E-23
  53974.145   -6.9735E-23
  53974.213   -5.9959E-23
  53974.281   -5.1354E-23
  53974.348   -5.3938E-23
  53974.416   -5.5292E-23
  53974.484   -5.2907E-23
  53974.552   -5.5482E-23
  53974.619   -4.1875E-23
  53974.687   -3.1860E-23
  53974.755   -2.6945E-23
  53974.822   -1.9428E-23
  53974.890   -1.8213E-23
  53974.958   -2.8498E-23
  53975.026   -3.9882E-23
  53975.093   -5.3766E-23
  53975.161   -6.6241E-23
  53975.229   -7.0035E-23
  53975.297   -6.5200E-23
  53975.364   -5.2904E-23
  53975.432   -3.2988E-23
  53975.500   -1.5273E-23
  53975.568   -9.0577E-24
  53975.635   -9.1412E-24
  53975.703   -1.4326E-23
  53975.771   -1.0611E-23
  53975.838   -6.7941E-24
  53975.906   -1.5879E-23
  53975.974   -2.3564E-23
  53976.042   -2.6248E-23
  53976.109   -3.1432E-23
  53976.177   -4.0317E-23
  53976.245   -4.7901E-23
  53976.313   -4.1786E-23
  53976.380   -3.5569E-23
  53976.448   -3.4354E-23
  53976.516   -3.3239E-23
  53976.583   -3.9622E-23
  53976.651   -4.8507E-23
  53976.719   -5.2292E-23
  53976.787   -3.7377E-23
  53976.854   -2.4860E-23
  53976.922   -1.4745E-23
  53976.990   -1.3530E-23
  53977.058   -1.4914E-23
  53977.125   -2.0098E-23
  53977.193   -2.5282E-23
  53977.261   -3.4267E-23
  53977.329   -4.5652E-23
  53977.396   -3.5735E-23
  53977.464   -2.9520E-23
  53977.532   -3.0905E-23
  53977.600   -2.3390E-23
  53977.667   -2.8473E-23
  53977.735   -3.4958E-23
  53977.803   -4.0043E-23
  53977.871   -4.5227E-23
  53977.938   -4.5311E-23
  53978.006   -3.6595E-23
  53978.074   -3.4180E-23
  53978.141   -2.9164E-23
  53978.209   -2.5448E-23
  53978.277   -2.4333E-23
  53978.345   -3.2018E-23
  53978.412   -3.2101E-23
  53978.480   -2.7086E-23
  53978.548   -2.8471E-23
  53978.616   -3.1156E-23
  53978.683   -3.5039E-23
  53978.751   -4.0124E-23
  53978.819   -4.0208E-23
  53978.887   -3.3993E-23
  53978.954   -3.0377E-23
  53979.022   -4.1761E-23
  53979.090   -5.3146E-23
  53979.158   -5.9431E-23
  53979.225   -5.5814E-23
  53979.293   -4.9699E-23
  53979.361   -3.3384E-23
  53979.429   -1.8269E-23
  53979.496   -6.8520E-24
  53979.564   -4.3367E-24
  53979.632   -4.4215E-24
  53979.700   -7.1062E-24
  53979.767   -2.2590E-23
  53979.835   -4.7974E-23
  53979.903   -6.7969E-23
  53979.971   -6.6834E-23
  53980.038   -5.9427E-23
  53980.106   -4.5812E-23
  53980.174   -3.8397E-23
  53980.242   -2.5782E-23
  53980.309   -1.6965E-23
  53980.377   -1.7050E-23
  53980.445   -2.3534E-23
  53980.513   -2.8719E-23
  53980.580   -2.2503E-23
  53980.648   -6.8741E-25
  53980.716    5.6279E-24
  53980.784    1.3343E-23
  53980.851    3.1660E-23
  53980.919    3.6875E-23
  53980.987    2.7490E-23
  53981.055    1.6905E-23
  53981.122    6.4220E-24
  53981.190   -2.7627E-24
  53981.258   -6.7475E-24
  53981.326    2.1678E-24
  53981.393    1.1184E-23
  53981.461    1.2400E-23
  53981.529    1.4915E-23
  53981.597    2.6630E-23
  53981.664    2.7847E-23
  53981.732    3.4362E-23
  53981.800    4.7577E-23
  53981.868    4.3492E-23
  53981.935    3.4109E-23
  53982.003    3.2624E-23
  53982.071    3.5240E-23
  53982.139    2.8555E-23
  53982.206    1.7871E-23
  53982.274    1.1287E-23
  53982.342    6.0019E-24
  53982.410    4.6171E-24
  53982.477    3.1337E-24
  53982.545    8.2489E-24
  53982.613    1.6064E-23
  53982.681    1.5879E-23
  53982.748    1.8496E-23
  53982.816    2.2311E-23
  53982.884    2.0927E-23
  53982.952    1.5542E-23
  53983.019    1.4158E-23
  53983.087    2.4574E-23
  53983.155    4.0289E-23
  53983.223    3.8904E-23
  53983.290    3.2221E-23
  53983.358    4.1336E-23
  53983.426    4.7951E-23
  53983.494    5.7266E-23
  53983.561    6.6583E-23
  53983.629    5.6998E-23
  53983.697    4.8914E-23
  53983.765    4.7429E-23
  53983.833    4.7344E-23
  53983.900    5.2661E-23
  53983.968    6.0576E-23
  53984.036    6.8591E-23
  53984.104    7.8006E-23
  53984.171    7.2523E-23
  53984.239    7.1038E-23
  53984.307    8.3253E-23
  53984.375    9.4069E-23
  53984.442    1.0369E-22
  53984.510    1.0500E-22
  53984.578    9.6616E-23
  53984.646    8.5431E-23
  53984.713    9.0848E-23
  53984.781    1.0186E-22
  53984.849    1.1848E-22
  53984.917    1.2959E-22
  53984.984    1.2811E-22
  53985.052    1.1953E-22
  53985.120    1.1384E-22
  53985.188    1.1376E-22
  53985.256    1.2067E-22
  53985.323    1.2759E-22
  53985.391    1.3170E-22
  53985.459    1.2322E-22
  53985.527    1.2593E-22
  53985.594    1.3425E-22
  53985.662    1.3417E-22
  53985.730    1.2418E-22
  53985.798    1.0320E-22
  53985.865    7.9612E-23
  53985.933    7.6827E-23
  53986.001    7.4043E-23
  53986.069    7.3858E-23
  53986.137    7.5173E-23
  53986.204    7.6490E-23
  53986.272    9.0005E-23
  53986.340    9.8220E-23
  53986.408    9.1236E-23
  53986.475    7.7452E-23
  53986.543    7.0467E-23
  53986.611    6.6383E-23
  53986.679    7.1698E-23
  53986.746    7.8414E-23
  53986.814    9.2030E-23
  53986.882    1.0305E-22
  53986.950    1.1126E-22
  53987.018    1.0838E-22
  53987.085    9.9992E-23
  53987.153    8.8807E-23
  53987.221    8.7323E-23
  53987.289    8.4538E-23
  53987.356    7.3454E-23
  53987.424    5.5770E-23
  53987.492    3.9585E-23
  53987.560    3.8100E-23
  53987.627    4.8717E-23
  53987.695    5.1332E-23
  53987.763    5.6647E-23
  53987.831    5.7863E-23
  53987.899    5.6378E-23
  53987.966    5.8994E-23
  53988.034    5.8910E-23
  53988.102    6.9725E-23
  53988.170    7.6440E-23
  53988.237    6.6757E-23
  53988.305    5.8572E-23
  53988.373    5.8487E-23
  53988.441    6.3803E-23
  53988.509    6.2318E-23
  53988.576    5.5434E-23
  53988.644    5.5350E-23
  53988.712    6.3365E-23
  53988.780    7.4180E-23
  53988.847    7.5497E-23
  53988.915    6.9912E-23
  53988.983    6.4327E-23
  53989.051    5.6142E-23
  53989.119    6.4158E-23
  53989.186    8.3174E-23
  53989.254    8.1690E-23
  53989.322    7.7505E-23
  53989.390    8.4320E-23
  53989.457    9.5237E-23
  53989.525    1.0765E-22
  53989.593    1.2157E-22
  53989.661    1.2568E-22
  53989.729    1.2420E-22
  53989.796    1.2691E-22
  53989.864    1.3823E-22
  53989.932    1.3524E-22
  53990.000    1.4226E-22
  53990.068    1.4078E-22
  53990.135    1.3069E-22
  53990.203    1.2641E-22
  53990.271    1.2342E-22
  53990.339    1.2054E-22
  53990.406    1.2185E-22
  53990.474    1.1617E-22
  53990.542    1.1738E-22
  53990.610    1.3570E-22
  53990.678    1.4702E-22
  53990.745    1.5843E-22
  53990.813    1.6855E-22
  53990.881    1.7426E-22
  53990.949    1.6978E-22
  53991.017    1.5519E-22
  53991.084    1.6811E-22
  53991.152    1.8702E-22
  53991.220    1.8844E-22
  53991.288    2.0016E-22
  53991.355    2.1047E-22
  53991.423    2.1639E-22
  53991.491    2.1770E-22
  53991.559    2.1762E-22
  53991.627    2.2203E-22
  53991.694    2.3255E-22
  53991.762    2.3846E-22
  53991.830    2.4758E-22
  53991.898    2.5670E-22
  53991.966    2.6271E-22
  53992.033    2.6733E-22
  53992.101    2.7654E-22
  53992.169    2.8896E-22
  53992.237    3.1257E-22
  53992.305    3.3499E-22
  53992.372    3.5610E-22
  53992.440    3.7412E-22
  53992.508    3.8904E-22
  53992.576    4.0235E-22
  53992.643    4.2607E-22
  53992.711    4.5898E-22
  53992.779    4.7820E-22
  53992.847    4.8341E-22
  53992.915    4.8513E-22
  53992.982    4.9754E-22
  53993.050    5.1556E-22
  53993.118    5.4847E-22
  53993.186    5.7649E-22
  53993.254    6.0491E-22
  53993.321    6.4772E-22
  53993.389    6.9174E-22
  53993.457    7.9735E-22
  53993.525    8.4017E-22
  53993.593    8.8308E-22
  53993.660    9.2800E-22
  53993.728    9.8891E-22
  53993.796    1.0378E-21
  53993.864    1.1027E-21
  53993.932    1.1727E-21
  53993.999    1.2396E-21
  53994.067    1.3275E-21
  53994.135    1.4214E-21
  53994.203    1.5233E-21
  53994.271    1.6202E-21
  53994.338    1.6992E-21
  53994.406    1.7641E-21
  53994.474    1.7960E-21
  53994.542    1.8969E-21
  53994.610    2.0148E-21
  53994.677    2.1017E-21
  53994.745    2.1576E-21
  53994.813    2.1936E-21
  53994.881    2.2445E-21
  53994.949    2.2804E-21
  53995.016    2.2993E-21
  53995.084    2.3052E-21
  53995.152    2.3021E-21
  53995.220    2.2791E-21
  53995.288    2.2540E-21
  53995.355    2.2159E-21
  53995.423    2.1788E-21
  53995.491    2.1517E-21
  53995.559    2.1226E-21
  53995.627    2.0955E-21
  53995.694    2.0655E-21
  53995.762    2.0174E-21
  53995.830    1.9733E-21
  53995.898    1.9182E-21
  53995.966    1.8501E-21
  53996.033    1.7740E-21
  53996.101    1.7120E-21
  53996.169    1.6359E-21
  53996.237    1.6078E-21
  53996.305    1.5887E-21
  53996.372    1.5706E-21
  53996.440    1.5505E-21
  53996.508    1.5235E-21
  53996.576    1.4734E-21
  53996.644    1.4263E-21
  53996.711    1.3932E-21
  53996.779    1.3671E-21
  53996.847    1.3540E-21
  53996.915    1.3589E-21
  53996.983    1.3669E-21
  53997.050    1.3878E-21
  53997.118    1.3967E-21
  53997.186    1.3876E-21
  53997.254    1.4025E-21
  53997.322    1.4304E-21
  53997.390    1.4584E-21
  53997.457    1.4843E-21
  53997.525    1.5152E-21
  53997.593    1.5511E-21
  53997.661    1.6120E-21
  53997.729    1.6719E-21
  53997.796    1.7288E-21
  53997.864    1.7748E-21
  53997.932    1.7887E-21
  53998.000    1.8506E-21
  53998.068    1.9245E-21
  53998.135    2.0034E-21
  53998.203    2.0783E-21
  53998.271    2.1453E-21
  53998.339    2.2302E-21
  53998.407    2.3521E-21
  53998.475    2.4770E-21
  53998.542    2.6159E-21
  53998.610    2.7708E-21
  53998.678    2.9357E-21
  53998.746    3.1227E-21
  53998.814    3.3376E-21
  53998.881    3.5445E-21
  53998.949    3.7764E-21
  53999.017    4.0203E-21
  53999.085    4.2722E-21
  53999.153    4.5652E-21
  53999.220    4.8761E-21
  53999.288    5.1890E-21
  53999.356    5.5059E-21
  53999.424    5.8898E-21
  53999.492    6.2417E-21
  53999.560    6.6606E-21
  53999.627    7.2916E-21
  53999.695    7.6245E-21
  53999.763    7.9864E-21
  53999.831    8.2913E-21
  53999.899    8.4972E-21
  53999.966    8.6771E-21
  54000.034    8.7511E-21
  54000.102    8.7760E-21
  54000.170    8.8529E-21
  54000.238    8.8958E-21
  54000.306    8.8567E-21
  54000.373    8.7316E-21
  54000.441    8.5556E-21
  54000.509    8.3465E-21
  54000.577    8.0204E-21
  54000.645    7.6713E-21
  54000.712    7.3842E-21
  54000.780    7.0191E-21
  54000.848    6.3490E-21
  54000.916    6.0150E-21
  54000.984    5.6409E-21
  54001.052    5.2878E-21
  54001.119    4.9657E-21
  54001.187    4.6886E-21
  54001.255    4.4345E-21
  54001.323    4.1685E-21
  54001.391    3.9024E-21
  54001.459    3.6523E-21
  54001.526    3.4172E-21
  54001.594    3.1951E-21
  54001.662    2.7680E-21
  54001.730    2.5929E-21
  54001.798    2.4419E-21
  54001.865    2.3168E-21
  54001.933    2.1997E-21
  54002.001    2.0926E-21
  54002.069    1.9805E-21
  54002.137    1.8644E-21
  54002.205    1.7614E-21
  54002.272    1.6353E-21
  54002.340    1.5672E-21
  54002.408    1.5201E-21
  54002.476    1.4610E-21
  54002.544    1.4019E-21
  54002.612    1.3348E-21
  54002.679    1.2628E-21
  54002.747    1.1897E-21
  54002.815    1.1216E-21
  54002.883    1.0635E-21
  54002.951    1.0024E-21
  54003.019    9.5034E-22
  54003.086    9.0625E-22
  54003.154    8.6517E-22
  54003.222    8.3309E-22
  54003.290    8.0240E-22
  54003.358    7.7652E-22
  54003.426    7.5043E-22
  54003.493    7.2075E-22
  54003.561    6.8146E-22
  54003.629    6.4518E-22
  54003.697    6.1539E-22
  54003.765    5.9211E-22
  54003.833    5.7092E-22
  54003.900    5.4444E-22
  54003.968    5.1656E-22
  54004.036    4.9277E-22
  54004.104    4.8729E-22
  54004.172    4.7820E-22
  54004.240    4.7282E-22
  54004.307    4.7093E-22
  54004.375    4.6365E-22
  54004.443    4.5476E-22
  54004.511    4.4228E-22
  54004.579    4.2139E-22
  54004.647    4.0061E-22
  54004.714    3.8363E-22
  54004.782    3.6174E-22
  54004.850    3.4016E-22
  54004.918    3.2857E-22
  54004.986    3.3999E-22
  54005.054    3.3820E-22
  54005.121    3.2992E-22
  54005.189    3.3143E-22
  54005.257    3.2645E-22
  54005.325    3.2477E-22
  54005.393    3.3448E-22
  54005.461    3.3270E-22
  54005.528    3.1801E-22
  54005.596    3.0173E-22
  54005.664    2.8734E-22
  54005.732    2.7616E-22
  54005.800    2.6657E-22
  54005.868    2.5089E-22
  54005.935    2.4150E-22
  54006.003    2.4302E-22
  54006.071    2.4594E-22
  54006.139    2.5205E-22
  54006.207    2.6607E-22
  54006.275    2.7698E-22
  54006.342    2.7840E-22
  54006.410    2.6571E-22
  54006.478    2.4693E-22
  54006.546    2.3144E-22
  54006.614    2.1606E-22
  54006.682    2.0387E-22
  54006.750    1.9929E-22
  54006.817    1.8421E-22
  54006.885    1.8262E-22
  54006.953    1.8704E-22
  54007.021    2.0645E-22
  54007.089    2.1387E-22
  54007.157    2.0928E-22
  54007.224    2.0160E-22
  54007.292    1.8801E-22
  54007.360    1.9393E-22
  54007.428    2.0434E-22
  54007.496    1.9976E-22
  54007.564    1.8918E-22
  54007.632    1.8009E-22
  54007.699    1.7701E-22
  54007.767    1.8882E-22
  54007.835    1.9774E-22
  54007.903    2.0065E-22
  54007.971    2.0657E-22
  54008.039    2.2018E-22
  54008.106    2.2770E-22
  54008.174    2.2302E-22
  54008.242    2.1223E-22
  54008.310    2.0005E-22
  54008.378    1.9546E-22
  54008.446    2.0438E-22
  54008.514    2.1489E-22
  54008.581    2.2701E-22
  54008.649    2.4542E-22
  54008.717    2.5154E-22
  54008.785    2.5925E-22
  54008.853    2.5917E-22
  54008.921    2.5908E-22
  54008.988    2.6370E-22
  54009.056    2.7782E-22
  54009.124    2.8083E-22
  54009.192    2.7915E-22
  54009.260    2.7436E-22
  54009.328    2.7428E-22
  54009.396    2.6939E-22
  54009.463    2.7251E-22
  54009.531    2.7232E-22
  54009.599    2.8014E-22
  54009.667    2.8645E-22
  54009.735    2.9277E-22
  54009.803    2.9109E-22
  54009.871    2.8300E-22
  54009.938    2.9082E-22
  54010.006    2.9713E-22
  54010.074    3.0025E-22
  54010.142    2.8896E-22
  54010.210    2.6508E-22
  54010.278    2.5559E-22
  54010.346    2.4621E-22
  54010.413    2.2903E-22
  54010.481    2.2434E-22
  54010.549    2.2586E-22
  54010.617    2.3647E-22
  54010.685    2.4099E-22
  54010.753    2.3940E-22
  54010.821    2.4552E-22
  54010.888    2.6263E-22
  54010.956    2.8305E-22
  54011.024    2.9736E-22
  54011.092    3.0208E-22
  54011.160    2.9229E-22
  54011.228    3.0031E-22
  54011.296    2.9853E-22
  54011.363    3.0814E-22
  54011.431    3.3086E-22
  54011.499    3.5227E-22
  54011.567    3.6049E-22
  54011.635    3.7550E-22
  54011.703    3.8562E-22
  54011.771    3.7533E-22
  54011.838    3.6685E-22
  54011.906    3.7007E-22
  54011.974    3.7338E-22
  54012.042    3.6820E-22
  54012.110    3.5811E-22
  54012.178    3.5963E-22
  54012.246    3.5784E-22
  54012.313    3.4776E-22
  54012.381    3.3607E-22
  54012.449    3.1639E-22
  54012.517    3.0650E-22
  54012.585    2.9992E-22
  54012.653    2.9503E-22
  54012.721    2.8855E-22
  54012.789    2.7256E-22
  54012.856    2.4418E-22
  54012.924    2.2860E-22
  54012.992    2.0561E-22
  54013.060    1.8893E-22
  54013.128    1.8574E-22
  54013.196    1.8866E-22
  54013.264    1.9307E-22
  54013.331    1.9909E-22
  54013.399    1.9140E-22
  54013.467    1.9132E-22
  54013.535    1.9274E-22
  54013.603    1.8065E-22
  54013.671    1.6127E-22
  54013.739    1.6108E-22
  54013.807    1.5660E-22
  54013.874    1.4481E-22
  54013.942    1.4173E-22
  54014.010    1.4164E-22
  54014.078    1.4306E-22
  54014.146    1.4297E-22
  54014.214    1.4429E-22
  54014.282    1.5010E-22
  54014.349    1.5142E-22
  54014.417    1.4984E-22
  54014.485    1.3955E-22
  54014.553    1.3947E-22
  54014.621    1.4958E-22
  54014.689    1.6130E-22
  54014.757    1.6861E-22
  54014.825    1.7893E-22
  54014.892    1.8634E-22
  54014.960    1.9226E-22
  54015.028    1.8158E-22
  54015.096    1.6809E-22
  54015.164    1.6651E-22
  54015.232    1.6052E-22
  54015.300    1.5594E-22
  54015.368    1.5885E-22
  54015.435    1.5427E-22
  54015.503    1.4248E-22
  54015.571    1.3360E-22
  54015.639    1.3791E-22
  54015.707    1.4073E-22
  54015.775    1.4944E-22
  54015.843    1.5666E-22
  54015.911    1.5067E-22
  54015.978    1.4769E-22
  54016.046    1.4611E-22
  54016.114    1.4312E-22
  54016.182    1.5184E-22
  54016.250    1.5465E-22
  54016.318    1.4427E-22
  54016.386    1.3688E-22
  54016.454    1.3240E-22
  54016.521    1.3081E-22
  54016.589    1.3653E-22
  54016.657    1.5255E-22
  54016.725    1.5696E-22
  54016.793    1.5978E-22
  54016.861    1.6119E-22
  54016.929    1.5811E-22
  54016.997    1.5652E-22
  54017.064    1.6234E-22
  54017.132    1.5925E-22
  54017.200    1.4597E-22
  54017.268    1.4438E-22
  54017.336    1.4280E-22
  54017.404    1.3541E-22
  54017.472    1.2373E-22
  54017.540    1.2215E-22
  54017.608    1.3076E-22
  54017.675    1.4238E-22
  54017.743    1.5109E-22
  54017.811    1.4221E-22
  54017.879    1.4062E-22
  54017.947    1.3324E-22
  54018.015    1.0715E-22
  54018.083    9.7069E-23
  54018.151    1.0118E-22
  54018.218    1.0680E-22
  54018.286    1.0822E-22
  54018.354    1.1673E-22
  54018.422    1.3255E-22
  54018.490    1.3536E-22
  54018.558    1.3238E-22
  54018.626    1.2789E-22
  54018.694    1.2921E-22
  54018.762    1.4232E-22
  54018.829    1.5694E-22
  54018.897    1.6865E-22
  54018.965    1.7907E-22
  54019.033    1.8048E-22
  54019.101    1.7140E-22
  54019.169    1.6982E-22
  54019.237    1.6823E-22
  54019.305    1.6815E-22
  54019.373    1.7846E-22
  54019.440    2.0868E-22
  54019.508    2.1779E-22
  54019.576    2.1461E-22
  54019.644    2.0992E-22
  54019.712    2.0834E-22
  54019.780    2.1435E-22
  54019.848    2.2507E-22
  54019.916    2.2648E-22
  54019.984    2.1870E-22
  54020.051    2.0782E-22
  54020.119    2.0013E-22
  54020.187    2.0305E-22
  54020.255    2.1366E-22
  54020.323    2.2748E-22
  54020.391    2.4139E-22
  54020.459    2.4601E-22
  54020.527    2.6002E-22
  54020.595    2.7424E-22
  54020.662    2.8856E-22
  54020.730    3.0957E-22
  54020.798    3.3089E-22
  54020.866    3.5410E-22
  54020.934    3.7262E-22
  54021.002    3.8793E-22
  54021.070    3.9985E-22
  54021.138    4.1366E-22
  54021.206    4.2408E-22
  54021.273    4.2749E-22
  54021.341    4.3451E-22
  54021.409    4.3612E-22
  54021.477    4.2544E-22
  54021.545    4.2355E-22
  54021.613    4.2877E-22
  54021.681    4.2519E-22
  54021.749    4.1460E-22
  54021.817    4.0402E-22
  54021.885    3.9183E-22
  54021.952    3.8315E-22
  54022.020    3.8646E-22
  54022.088    3.8118E-22
  54022.156    3.8109E-22
  54022.224    3.8101E-22
  54022.292    3.8952E-22
  54022.360    4.1194E-22
  54022.428    4.1705E-22
  54022.496    4.1877E-22
  54022.564    4.1169E-22
  54022.631    4.0980E-22
  54022.699    4.0622E-22
  54022.767    4.2363E-22
  54022.835    4.5195E-22
  54022.903    4.7346E-22
  54022.971    4.9168E-22
  54023.039    4.9709E-22
  54023.107    5.0071E-22
  54023.175    5.1362E-22
  54023.243    5.3224E-22
  54023.310    5.5306E-22
  54023.378    5.6057E-22
  54023.446    5.6049E-22
  54023.514    5.5270E-22
  54023.582    5.3362E-22
  54023.650    5.0173E-22
  54023.718    4.8145E-22
  54023.786    4.7226E-22
  54023.854    4.6858E-22
  54023.922    4.5579E-22
  54023.989    4.3431E-22
  54024.057    4.0952E-22
  54024.125    3.8864E-22
  54024.193    3.7996E-22
  54024.261    3.7647E-22
  54024.329    3.7639E-22
  54024.397    3.7630E-22
  54024.465    3.7612E-22
  54024.533    3.7433E-22
  54024.601    3.7085E-22
  54024.669    3.6566E-22
  54024.736    3.4868E-22
  54024.804    3.3019E-22
  54024.872    3.1361E-22
  54024.940    2.9222E-22
  54025.008    2.8894E-22
  54025.076    3.0016E-22
  54025.144    3.1157E-22
  54025.212    3.0659E-22
  54025.280    2.9990E-22
  54025.348    3.0142E-22
  54025.416    3.0463E-22
  54025.483    3.1935E-22
  54025.551    3.2246E-22
  54025.619    3.2238E-22
  54025.687    3.1239E-22
  54025.755    2.8141E-22
  54025.823    2.6052E-22
  54025.891    2.5724E-22
  54025.959    2.7466E-22
  54026.027    2.9397E-22
  54026.095    3.0199E-22
  54026.163    3.0360E-22
  54026.230    3.0512E-22
  54026.298    3.2313E-22
  54026.366    3.2135E-22
  54026.434    3.2786E-22
  54026.502    3.2448E-22
  54026.570    3.1779E-22
  54026.638    3.1601E-22
  54026.706    3.0932E-22
  54026.774    3.1254E-22
  54026.842    3.2405E-22
  54026.910    3.4397E-22
  54026.978    3.4889E-22
  54027.045    3.4710E-22
  54027.113    3.5032E-22
  54027.181    3.4523E-22
  54027.249    3.4175E-22
  54027.317    3.3666E-22
  54027.385    3.4498E-22
  54027.453    3.5659E-22
  54027.521    3.6331E-22
  54027.589    3.5982E-22
  54027.657    3.6484E-22
  54027.725    3.7325E-22
  54027.793    3.9037E-22
  54027.860    4.0419E-22
  54027.928    3.9890E-22
  54027.996    3.9362E-22
  54028.053    0.3430E-21
  54028.120    0.3335E-21
  54028.188    0.3366E-21
  54028.255    0.3555E-21
  54028.322    0.3872E-21
  54028.389    0.4128E-21
  54028.457    0.4256E-21
  54028.524    0.4159E-21
  54028.591    0.4159E-21
  54028.659    0.3998E-21
  54028.726    0.3998E-21
  54028.793    0.4125E-21
  54028.861    0.4125E-21
  54028.928    0.4221E-21
  54028.995    0.4414E-21
  54029.063    0.4479E-21
  54029.130    0.4706E-21
  54029.197    0.4803E-21
  54029.264    0.4835E-21
  54029.332    0.4999E-21
  54029.399    0.5097E-21
  54029.466    0.5031E-21
  54029.534    0.5063E-21
  54029.601    0.4866E-21
  54029.668    0.4637E-21
  54029.736    0.4865E-21
  54029.803    0.4865E-21
  54029.870    0.4603E-21
  54029.938    0.4473E-21
  54030.005    0.4440E-21
  54030.072    0.4798E-21
  54030.139    0.5125E-21
  54030.207    0.5456E-21
  54030.274    0.5755E-21
  54030.341    0.5822E-21
  54030.409    0.5755E-21
  54030.476    0.5922E-21
  54030.543    0.5989E-21
  54030.611    0.6123E-21
  54030.678    0.6360E-21
  54030.745    0.6360E-21
  54030.813    0.6495E-21
  54030.880    0.6734E-21
  54030.947    0.7078E-21
  54031.015    0.7600E-21
  54031.082    0.7811E-21
  54031.149    0.7705E-21
  54031.216    0.7987E-21
  54031.284    0.8378E-21
  54031.351    0.9135E-21
  54031.418    0.9685E-21
  54031.486    0.9611E-21
  54031.553    0.9463E-21
  54031.620    0.9207E-21
  54031.688    0.9389E-21
  54031.755    0.9794E-21
  54031.822    0.1017E-20
  54031.890    0.1062E-20
  54031.957    0.1073E-20
  54032.024    0.1081E-20
  54032.092    0.1062E-20
  54032.159    0.1058E-20
  54032.226    0.1111E-20
  54032.294    0.1157E-20
  54032.361    0.1180E-20
  54032.428    0.1184E-20
  54032.496    0.1180E-20
  54032.563    0.1176E-20
  54032.630    0.1169E-20
  54032.698    0.1149E-20
  54032.765    0.1161E-20
  54032.832    0.1200E-20
  54032.899    0.1243E-20
  54032.967    0.1259E-20
  54033.034    0.1251E-20
  54033.101    0.1267E-20
  54033.169    0.1303E-20
  54033.236    0.1343E-20
  54033.303    0.1355E-20
  54033.371    0.1392E-20
  54033.438    0.1429E-20
  54033.505    0.1446E-20
  54033.573    0.1475E-20
  54033.640    0.1530E-20
  54033.707    0.1534E-20
  54033.775    0.1530E-20
  54033.842    0.1577E-20
  54033.909    0.1594E-20
  54033.977    0.1633E-20
  54034.044    0.1673E-20
  54034.111    0.1690E-20
  54034.179    0.1695E-20
  54034.246    0.1695E-20
  54034.313    0.1686E-20
  54034.381    0.1703E-20
  54034.448    0.1762E-20
  54034.515    0.1839E-20
  54034.583    0.1904E-20
  54034.650    0.1937E-20
  54034.717    0.1965E-20
  54034.785    0.2018E-20
  54034.852    0.2061E-20
  54034.919    0.2115E-20
  54034.987    0.2190E-20
  54035.054    0.2220E-20
  54035.121    0.2261E-20
  54035.189    0.2297E-20
  54035.256    0.2323E-20
  54035.323    0.2385E-20
  54035.391    0.2503E-20
  54035.458    0.2670E-20
  54035.525    0.2808E-20
  54035.593    0.2909E-20
  54035.660    0.3019E-20
  54035.727    0.3059E-20
  54035.795    0.3250E-20
  54035.862    0.3423E-20
  54035.929    0.3596E-20
  54035.997    0.3819E-20
  54036.064    0.4025E-20
  54036.131    0.4241E-20
  54036.199    0.4532E-20
  54036.266    0.4820E-20
  54036.333    0.5114E-20
  54036.401    0.5462E-20
  54036.468    0.5819E-20
  54036.535    0.6214E-20
  54036.603    0.6642E-20
  54036.670    0.6939E-20
  54036.738    0.7424E-20
  54036.805    0.7899E-20
  54036.872    0.8303E-20
  54036.940    0.8681E-20
  54037.007    0.9005E-20
  54037.074    0.9337E-20
  54037.142    0.9679E-20
  54037.209    0.9987E-20
  54037.276    0.1018E-19
  54037.344    0.1040E-19
  54037.411    0.1054E-19
  54037.478    0.1059E-19
  54037.546    0.1054E-19
  54037.613    0.1034E-19
  54037.680    0.1009E-19
  54037.748    0.9878E-20
  54037.815    0.9629E-20
  54037.882    0.9449E-20
  54037.950    0.9318E-20
  54038.017    0.9101E-20
  54038.084    0.8931E-20
  54038.152    0.8755E-20
  54038.219    0.8604E-20
  54038.287    0.8098E-20
  54038.354    0.7913E-20
  54038.421    0.7711E-20
  54038.489    0.7464E-20
  54038.556    0.7176E-20
  54038.623    0.7022E-20
  54038.691    0.6904E-20
  54038.758    0.6810E-20
  54038.825    0.6660E-20
  54038.893    0.6576E-20
  54038.960    0.6548E-20
  54039.027    0.6562E-20
  54039.095    0.6473E-20
  54039.162    0.6419E-20
  54039.229    0.6427E-20
  54039.297    0.6441E-20
  54039.364    0.6679E-20
  54039.432    0.6773E-20
  54039.499    0.6846E-20
  54039.566    0.6970E-20
  54039.634    0.7117E-20
  54039.701    0.7277E-20
  54039.768    0.7487E-20
  54039.836    0.7735E-20
  54039.903    0.8072E-20
  54039.970    0.8549E-20
  54040.038    0.9027E-20
  54040.105    0.9546E-20
  54040.173    0.1011E-19
  54040.240    0.1060E-19
  54040.307    0.1123E-19
  54040.375    0.1184E-19
  54040.442    0.1257E-19
  54040.509    0.1342E-19
  54040.577    0.1428E-19
  54040.644    0.1518E-19
  54040.711    0.1637E-19
  54040.779    0.1756E-19
  54040.846    0.1881E-19
  54040.913    0.2019E-19
  54040.981    0.2238E-19
  54041.048    0.2367E-19
  54041.116    0.2471E-19
  54041.183    0.2572E-19
  54041.250    0.2671E-19
  54041.318    0.2793E-19
  54041.385    0.2890E-19
  54041.452    0.2955E-19
  54041.520    0.2997E-19
  54041.587    0.3022E-19
  54041.655    0.3008E-19
  54041.722    0.2965E-19
  54041.789    0.2895E-19
  54041.857    0.2821E-19
  54041.924    0.2743E-19
  54041.991    0.2660E-19
  54042.059    0.2574E-19
  54042.126    0.2460E-19
  54042.193    0.2347E-19
  54042.261    0.2222E-19
  54042.328    0.2093E-19
  54042.396    0.1962E-19
  54042.463    0.1851E-19
  54042.530    0.1752E-19
  54042.598    0.1652E-19
  54042.665    0.1602E-19
  54042.732    0.1522E-19
  54042.800    0.1442E-19
  54042.867    0.1356E-19
  54042.935    0.1267E-19
  54043.002    0.1180E-19
  54043.069    0.1092E-19
  54043.137    0.1019E-19
  54043.204    0.9602E-20
  54043.271    0.9037E-20
  54043.339    0.8400E-20
  54043.406    0.7662E-20
  54043.474    0.7174E-20
  54043.541    0.6802E-20
  54043.608    0.6545E-20
  54043.676    0.6299E-20
  54043.743    0.6071E-20
  54043.811    0.5802E-20
  54043.878    0.5538E-20
  54043.945    0.5252E-20
  54044.013    0.4943E-20
  54044.080    0.4647E-20
  54044.147    0.4392E-20
  54044.215    0.4161E-20
  54044.282    0.3999E-20
  54044.350    0.3885E-20
  54044.417    0.3770E-20
  54044.484    0.3701E-20
  54044.552    0.3607E-20
  54044.619    0.3442E-20
  54044.686    0.3314E-20
  54044.754    0.3200E-20
  54044.821    0.3054E-20
  54044.889    0.2925E-20
  54044.956    0.2698E-20
  54045.023    0.2607E-20
  54045.091    0.2541E-20
  54045.158    0.2475E-20
  54045.226    0.2416E-20
  54045.293    0.2358E-20
  54045.360    0.2301E-20
  54045.428    0.2224E-20
  54045.495    0.2163E-20
  54045.562    0.2133E-20
  54045.630    0.2104E-20
  54045.697    0.2055E-20
  54045.765    0.1992E-20
  54045.832    0.1939E-20
  54045.899    0.1869E-20
  54045.967    0.1832E-20
  54046.034    0.1814E-20
  54046.102    0.1791E-20
  54046.169    0.1736E-20
  54046.236    0.1714E-20
  54046.304    0.1692E-20
  54046.371    0.1630E-20
  54046.439    0.1599E-20
  54046.506    0.1586E-20
  54046.573    0.1547E-20
  54046.641    0.1492E-20
  54046.708    0.1450E-20
  54046.776    0.1417E-20
  54046.843    0.1388E-20
  54046.910    0.1379E-20
  54046.978    0.1388E-20
  54047.045    0.1408E-20
  54047.113    0.1425E-20
  54047.180    0.1462E-20
  54047.247    0.1526E-20
  54047.315    0.1564E-20
  54047.382    0.1590E-20
  54047.450    0.1603E-20
  54047.517    0.1590E-20
  54047.584    0.1538E-20
  54047.652    0.1504E-20
  54047.719    0.1500E-20
  54047.787    0.1508E-20
  54047.854    0.1534E-20
  54047.921    0.1538E-20
  54047.989    0.1521E-20
  54048.056    0.1508E-20
  54048.124    0.1491E-20
  54048.191    0.1487E-20
  54048.258    0.1483E-20
  54048.326    0.1453E-20
  54048.393    0.1416E-20
  54048.461    0.1395E-20
  54048.528    0.1395E-20
  54048.595    0.1399E-20
  54048.663    0.1403E-20
  54048.730    0.1415E-20
  54048.798    0.1432E-20
  54048.865    0.1415E-20
  54048.932    0.1403E-20
  54049.000    0.1370E-20
  54049.067    0.1354E-20
  54049.135    0.1362E-20
  54049.202    0.1345E-20
  54049.269    0.1297E-20
  54049.337    0.1257E-20
  54049.404    0.1221E-20
  54049.472    0.1193E-20
  54049.539    0.1178E-20
  54049.606    0.1158E-20
  54049.674    0.1135E-20
  54049.741    0.1131E-20
  54049.809    0.1135E-20
  54049.876    0.1108E-20
  54049.943    0.1054E-20
  54050.011    0.1005E-20
  54050.078    0.9792E-21
  54050.146    0.9606E-21
  54050.213    0.9569E-21
  54050.281    0.9531E-21
  54050.348    0.9310E-21
  54050.415    0.9126E-21
  54050.483    0.8871E-21
  54050.550    0.8617E-21
  54050.618    0.8150E-21
  54050.685    0.7724E-21
  54050.752    0.7618E-21
  54050.820    0.7759E-21
  54050.887    0.7688E-21
  54050.955    0.7935E-21
  54051.022    0.8005E-21
  54051.090    0.7616E-21
  54051.157    0.7510E-21
  54051.224    0.7721E-21
  54051.292    0.7615E-21
  54051.359    0.7650E-21
  54051.427    0.7684E-21
  54051.494    0.7790E-21
  54051.561    0.7967E-21
  54051.629    0.7895E-21
  54051.696    0.7895E-21
  54051.764    0.7788E-21
  54051.831    0.7611E-21
  54051.899    0.7541E-21
  54051.966    0.7716E-21
  54052.033    0.8106E-21
  54052.101    0.8463E-21
  54052.168    0.8499E-21
  54052.236    0.8355E-21
  54052.303    0.8319E-21
  54052.370    0.8033E-21
  54052.438    0.7926E-21
  54052.505    0.8103E-21
  54052.573    0.8532E-21
  54052.640    0.9259E-21
  54052.708    0.9887E-21
  54052.775    0.1004E-20
  54052.842    0.1015E-20
  54052.910    0.1030E-20
  54052.977    0.1075E-20
  54053.045    0.1117E-20
  54053.112    0.1121E-20
  54053.180    0.1144E-20
  54053.247    0.1140E-20
  54053.314    0.1156E-20
  54053.382    0.1167E-20
  54053.449    0.1156E-20
  54053.517    0.1152E-20
  54053.584    0.1179E-20
  54053.652    0.1230E-20
  54053.719    0.1290E-20
  54053.786    0.1314E-20
  54053.854    0.1302E-20
  54053.921    0.1290E-20
  54053.989    0.1278E-20
  54054.056    0.1274E-20
  54054.124    0.1258E-20
  54054.191    0.1258E-20
  54054.258    0.1258E-20
  54054.326    0.1246E-20
  54054.393    0.1218E-20
  54054.461    0.1194E-20
  54054.528    0.1155E-20
  54054.596    0.1139E-20
  54054.663    0.1132E-20
  54054.730    0.1135E-20
  54054.798    0.1139E-20
  54054.865    0.1124E-20
  54054.933    0.1120E-20
  54055.000    0.1128E-20
  54055.068    0.1116E-20
  54055.135    0.1093E-20
  54055.203    0.1059E-20
  54055.270    0.1025E-20
  54055.337    0.1021E-20
  54055.405    0.1055E-20
  54055.472    0.1085E-20
  54055.540    0.1047E-20
  54055.607    0.1002E-20
  54055.675    0.9720E-21
  54055.742    0.9571E-21
  54055.809    0.9682E-21
  54055.877    0.1005E-20
  54055.944    0.1043E-20
  54056.012    0.1028E-20
  54056.079    0.9717E-21
  54056.147    0.9274E-21
  54056.214    0.8981E-21
  54056.282    0.9053E-21
  54056.349    0.9236E-21
  54056.416    0.9641E-21
  54056.484    0.1001E-20
  54056.551    0.1024E-20
  54056.619    0.1031E-20
  54056.686    0.1035E-20
  54056.754    0.1050E-20
  54056.821    0.1065E-20
  54056.889    0.1050E-20
  54056.956    0.1023E-20
  54057.023    0.1020E-20
  54057.091    0.1012E-20
  54057.158    0.1016E-20
  54057.226    0.1054E-20
  54057.293    0.1111E-20
  54057.361    0.1145E-20
  54057.428    0.1153E-20
  54057.496    0.1169E-20
  54057.563    0.1192E-20
  54057.631    0.1212E-20
  54057.698    0.1251E-20
  54057.765    0.1287E-20
  54057.833    0.1320E-20
  54057.900    0.1340E-20
  54057.968    0.1340E-20
  54058.035    0.1356E-20
  54058.103    0.1397E-20
  54058.170    0.1422E-20
  54058.238    0.1451E-20
  54058.305    0.1443E-20
  54058.372    0.1447E-20
  54058.440    0.1409E-20
  54058.507    0.1356E-20
  54058.575    0.1319E-20
  54058.642    0.1291E-20
  54058.710    0.1259E-20
  54058.777    0.1231E-20
  54058.845    0.1219E-20
  54058.912    0.1219E-20
  54058.980    0.1195E-20
  54059.047    0.1164E-20
  54059.114    0.1144E-20
  54059.182    0.1144E-20
  54059.249    0.1144E-20
  54059.317    0.1125E-20
  54059.384    0.1106E-20
  54059.452    0.1086E-20
  54059.519    0.1067E-20
  54059.587    0.1056E-20
  54059.654    0.1060E-20
  54059.722    0.1056E-20
  54059.789    0.1033E-20
  54059.857    0.1029E-20
  54059.924    0.1063E-20
  54059.991    0.1117E-20
  54060.059    0.1179E-20
  54060.126    0.1218E-20
  54060.194    0.1214E-20
  54060.261    0.1214E-20
  54060.329    0.1206E-20
  54060.396    0.1206E-20
  54060.464    0.1222E-20
  54060.531    0.1226E-20
  54060.599    0.1238E-20
  54060.666    0.1286E-20
  54060.734    0.1334E-20
  54060.801    0.1371E-20
  54060.868    0.1408E-20
  54060.936    0.1433E-20
  54061.003    0.1454E-20
  54061.071    0.1466E-20
  54061.138    0.1470E-20
  54061.206    0.1483E-20
  54061.273    0.1504E-20
  54061.341    0.1508E-20
  54061.408    0.1513E-20
  54061.476    0.1500E-20
  54061.543    0.1445E-20
  54061.611    0.1428E-20
  54061.678    0.1470E-20
  54061.746    0.1491E-20
  54061.813    0.1504E-20
  54061.881    0.1517E-20
  54061.948    0.1517E-20
  54062.015    0.1521E-20
  54062.083    0.1538E-20
  54062.150    0.1551E-20
  54062.218    0.1538E-20
  54062.285    0.1529E-20
  54062.353    0.1521E-20
  54062.420    0.1516E-20
  54062.488    0.1482E-20
  54062.555    0.1453E-20
  54062.623    0.1449E-20
  54062.690    0.1444E-20
  54062.758    0.1428E-20
  54062.825    0.1411E-20
  54062.893    0.1394E-20
  54062.960    0.1361E-20
  54063.028    0.1316E-20
  54063.095    0.1280E-20
  54063.163    0.1268E-20
  54063.230    0.1260E-20
  54063.297    0.1256E-20
  54063.365    0.1304E-20
  54063.432    0.1349E-20
  54063.500    0.1353E-20
  54063.567    0.1340E-20
  54063.635    0.1336E-20
  54063.702    0.1349E-20
  54063.770    0.1353E-20
  54063.837    0.1361E-20
  54063.905    0.1369E-20
  54063.972    0.1373E-20
  54064.040    0.1398E-20
  54064.107    0.1398E-20
  54064.175    0.1385E-20
  54064.242    0.1389E-20
  54064.310    0.1414E-20
  54064.377    0.1443E-20
  54064.445    0.1489E-20
  54064.512    0.1528E-20
  54064.580    0.1545E-20
  54064.647    0.1528E-20
  54064.715    0.1536E-20
  54064.782    0.1519E-20
  54064.850    0.1477E-20
  54064.917    0.1447E-20
  54064.985    0.1464E-20
  54065.052    0.1506E-20
  54065.120    0.1549E-20
  54065.187    0.1618E-20
  54065.254    0.1675E-20
  54065.322    0.1707E-20
  54065.389    0.1724E-20
  54065.457    0.1729E-20
  54065.524    0.1724E-20
  54065.592    0.1711E-20
  54065.659    0.1729E-20
  54065.727    0.1738E-20
  54065.794    0.1733E-20
  54065.862    0.1738E-20
  54065.929    0.1751E-20
  54065.997    0.1778E-20
  54066.064    0.1833E-20
  54066.132    0.1861E-20
  54066.199    0.1884E-20
  54066.267    0.1875E-20
  54066.334    0.1866E-20
  54066.402    0.1903E-20
  54066.469    0.1941E-20
  54066.537    0.1979E-20
  54066.604    0.2022E-20
  54066.672    0.2090E-20
  54066.739    0.2120E-20
  54066.807    0.2125E-20
  54066.874    0.2130E-20
  54066.942    0.2130E-20
  54067.009    0.2110E-20
  54067.077    0.2125E-20
  54067.144    0.2160E-20
  54067.212    0.2180E-20
  54067.279    0.2195E-20
  54067.347    0.2230E-20
  54067.414    0.2297E-20
  54067.482    0.2355E-20
  54067.549    0.2413E-20
  54067.617    0.2472E-20
  54067.684    0.2505E-20
  54067.752    0.2527E-20
  54067.819    0.2577E-20
  54067.887    0.2644E-20
  54067.954    0.2701E-20
  54068.022    0.2770E-20
  54068.089    0.2788E-20
  54068.157    0.2835E-20
  54068.224    0.2950E-20
  54068.292    0.3018E-20
  54068.359    0.3160E-20
  54068.427    0.3238E-20
  54068.494    0.3308E-20
  54068.562    0.3363E-20
  54068.629    0.3382E-20
  54068.697    0.3433E-20
  54068.764    0.3499E-20
  54068.832    0.3610E-20
  54068.899    0.3734E-20
  54068.967    0.3864E-20
  54069.034    0.3963E-20
  54069.102    0.4047E-20
  54069.169    0.4083E-20
  54069.237    0.4159E-20
  54069.304    0.4297E-20
  54069.372    0.4413E-20
  54069.439    0.4520E-20
  54069.507    0.4671E-20
  54069.574    0.4844E-20
  54069.642    0.5050E-20
  54069.709    0.5275E-20
  54069.777    0.5516E-20
  54069.844    0.5758E-20
  54069.912    0.5979E-20
  54069.980    0.6241E-20
  54070.047    0.6495E-20
  54070.115    0.6670E-20
  54070.182    0.6857E-20
  54070.250    0.7063E-20
  54070.317    0.7315E-20
  54070.385    0.7582E-20
  54070.452    0.7835E-20
  54070.520    0.8014E-20
  54070.587    0.8400E-20
  54070.655    0.8793E-20
  54070.722    0.9195E-20
  54070.790    0.9610E-20
  54070.857    0.1005E-19
  54070.925    0.1055E-19
  54070.992    0.1119E-19
  54071.060    0.1194E-19
  54071.127    0.1282E-19
  54071.195    0.1385E-19
  54071.262    0.1476E-19
  54071.330    0.1561E-19
  54071.397    0.1635E-19
  54071.465    0.1752E-19
  54071.532    0.1880E-19
  54071.600    0.2052E-19
  54071.667    0.2224E-19
  54071.735    0.2375E-19
  54071.802    0.2510E-19
  54071.870    0.2644E-19
  54071.938    0.2788E-19
  54072.005    0.2944E-19
  54072.073    0.3113E-19
  54072.140    0.3289E-19
  54072.208    0.3395E-19
  54072.275    0.3467E-19
  54072.343    0.3508E-19
  54072.410    0.3533E-19
  54072.478    0.3550E-19
  54072.545    0.3557E-19
  54072.613    0.3532E-19
  54072.680    0.3494E-19
  54072.748    0.3449E-19
  54072.815    0.3352E-19
  54072.883    0.3240E-19
  54072.950    0.3135E-19
  54073.018    0.3032E-19
  54073.085    0.2935E-19
  54073.153    0.2875E-19
  54073.220    0.2803E-19
  54073.288    0.2726E-19
  54073.356    0.2642E-19
  54073.423    0.2558E-19
  54073.491    0.2473E-19
  54073.558    0.2420E-19
  54073.626    0.2380E-19
  54073.693    0.2356E-19
  54073.761    0.2367E-19
  54073.828    0.2375E-19
  54073.896    0.2395E-19
  54073.963    0.2398E-19
  54074.031    0.2391E-19
  54074.098    0.2414E-19
  54074.166    0.2469E-19
  54074.233    0.2541E-19
  54074.301    0.2613E-19
  54074.369    0.2677E-19
  54074.436    0.2750E-19
  54074.504    0.2848E-19
  54074.571    0.2958E-19
  54074.639    0.3072E-19
  54074.706    0.3203E-19
  54074.774    0.3343E-19
  54074.841    0.3479E-19
  54074.909    0.3650E-19
  54074.976    0.3835E-19
  54075.044    0.4053E-19
  54075.111    0.4326E-19
  54075.179    0.4780E-19
  54075.246    0.5100E-19
  54075.314    0.5432E-19
  54075.382    0.5755E-19
  54075.449    0.6059E-19
  54075.517    0.6308E-19
  54075.584    0.6567E-19
  54075.652    0.6815E-19
  54075.719    0.7050E-19
  54075.787    0.7287E-19
  54075.854    0.7489E-19
  54075.922    0.7825E-19
  54075.989    0.7888E-19
  54076.057    0.7839E-19
  54076.125    0.7674E-19
  54076.192    0.7607E-19
  54076.260    0.7438E-19
  54076.327    0.7239E-19
  54076.395    0.7015E-19
  54076.462    0.6736E-19
  54076.530    0.6443E-19
  54076.597    0.6134E-19
  54076.665    0.5799E-19
  54076.732    0.5469E-19
  54076.800    0.5174E-19
  54076.868    0.4629E-19
  54076.935    0.4341E-19
  54077.003    0.4088E-19
  54077.070    0.3828E-19
  54077.138    0.3498E-19
  54077.205    0.3302E-19
  54077.273    0.3085E-19
  54077.340    0.2893E-19
  54077.408    0.2740E-19
  54077.475    0.2573E-19
  54077.543    0.2405E-19
  54077.611    0.2265E-19
  54077.678    0.2153E-19
  54077.746    0.2007E-19
  54077.813    0.1905E-19
  54077.881    0.1788E-19
  54077.948    0.1669E-19
  54078.016    0.1561E-19
  54078.083    0.1464E-19
  54078.151    0.1392E-19
  54078.219    0.1324E-19
  54078.286    0.1261E-19
  54078.354    0.1210E-19
  54078.421    0.1163E-19
  54078.489    0.1121E-19
  54078.556    0.1082E-19
  54078.624    0.1047E-19
  54078.691    0.1013E-19
  54078.759    0.9688E-20
  54078.827    0.9255E-20
  54078.894    0.8826E-20
  54078.962    0.8413E-20
  54079.029    0.7935E-20
  54079.097    0.7618E-20
  54079.164    0.7347E-20
  54079.232    0.7071E-20
  54079.299    0.6846E-20
  54079.367    0.6666E-20
  54079.435    0.6545E-20
  54079.502    0.6418E-20
  54079.570    0.6242E-20
  54079.637    0.6026E-20
  54079.705    0.5785E-20
  54079.772    0.5571E-20
  54079.840    0.5381E-20
  54079.907    0.5174E-20
  54079.975    0.5013E-20
  54080.043    0.4868E-20
  54080.110    0.4718E-20
  54080.178    0.4608E-20
  54080.245    0.4494E-20
  54080.313    0.4413E-20
  54080.380    0.4332E-20
  54080.448    0.4248E-20
  54080.516    0.4174E-20
  54080.583    0.4120E-20
  54080.651    0.4072E-20
  54080.718    0.4023E-20
  54080.786    0.3935E-20
  54080.853    0.3799E-20
  54080.921    0.3683E-20
  54080.989    0.3600E-20
  54081.056    0.3529E-20
  54081.124    0.3456E-20
  54081.191    0.3402E-20
  54081.259    0.3349E-20
  54081.326    0.3274E-20
  54081.394    0.3212E-20
  54081.462    0.3198E-20
  54081.529    0.3187E-20
  54081.597    0.3173E-20
  54081.664    0.3139E-20
  54081.732    0.3095E-20
  54081.799    0.3033E-20
  54081.867    0.2976E-20
  54081.935    0.3009E-20
  54082.002    0.2947E-20
  54082.070    0.2862E-20
  54082.137    0.2815E-20
  54082.205    0.2767E-20
  54082.272    0.2709E-20
  54082.340    0.2680E-20
  54082.408    0.2686E-20
  54082.475    0.2715E-20
  54082.543    0.2761E-20
  54082.610    0.2755E-20
  54082.678    0.2669E-20
  54082.745    0.2578E-20
  54082.813    0.2539E-20
  54082.881    0.2550E-20
  54082.948    0.2550E-20
  54083.016    0.2528E-20
  54083.083    0.2495E-20
  54083.151    0.2463E-20
  54083.218    0.2387E-20
  54083.286    0.2340E-20
  54083.354    0.2324E-20
  54083.421    0.2293E-20
  54083.489    0.2277E-20
  54083.556    0.2251E-20
  54083.624    0.2225E-20
  54083.692    0.2230E-20
  54083.759    0.2225E-20
  54083.827    0.2225E-20
  54083.894    0.2205E-20
  54083.962    0.2205E-20
  54084.029    0.2235E-20
  54084.097    0.2266E-20
  54084.165    0.2297E-20
  54084.232    0.2334E-20
  54084.300    0.2329E-20
  54084.367    0.2292E-20
  54084.435    0.2256E-20
  54084.503    0.2215E-20
  54084.570    0.2220E-20
  54084.638    0.2225E-20
  54084.705    0.2225E-20
  54084.773    0.2220E-20
  54084.840    0.2179E-20
  54084.908    0.2154E-20
  54084.976    0.2144E-20
  54085.043    0.2124E-20
  54085.111    0.2134E-20
  54085.178    0.2143E-20
  54085.246    0.2138E-20
  54085.314    0.2128E-20
  54085.381    0.2143E-20
  54085.449    0.2118E-20
  54085.516    0.2089E-20
  54085.584    0.2049E-20
  54085.652    0.2015E-20
  54085.719    0.2000E-20
  54085.787    0.1981E-20
  54085.854    0.2005E-20
  54085.922    0.2039E-20
  54085.989    0.2064E-20
  54086.057    0.2078E-20
  54086.125    0.2108E-20
  54086.192    0.2118E-20
  54086.260    0.2083E-20
  54086.327    0.2078E-20
  54086.395    0.2073E-20
  54086.463    0.2063E-20
  54086.530    0.2078E-20
  54086.598    0.2088E-20
  54086.665    0.2083E-20
  54086.733    0.2128E-20
  54086.801    0.2173E-20
  54086.868    0.2193E-20
  54086.936    0.2193E-20
  54087.003    0.2122E-20
  54087.071    0.2053E-20
  54087.139    0.2009E-20
  54087.206    0.2000E-20
  54087.274    0.2014E-20
  54087.341    0.2043E-20
  54087.409    0.2063E-20
  54087.477    0.2082E-20
  54087.544    0.2092E-20
  54087.612    0.2087E-20
  54087.679    0.2092E-20
  54087.747    0.2072E-20
  54087.815    0.2062E-20
  54087.882    0.2077E-20
  54087.950    0.2102E-20
  54088.017    0.2112E-20
  54088.085    0.2142E-20
  54088.153    0.2182E-20
  54088.220    0.2197E-20
  54088.288    0.2228E-20
  54088.355    0.2243E-20
  54088.423    0.2222E-20
  54088.491    0.2222E-20
  54088.558    0.2253E-20
  54088.626    0.2269E-20
  54088.693    0.2294E-20
  54088.761    0.2331E-20
  54088.829    0.2341E-20
  54088.896    0.2326E-20
  54088.964    0.2336E-20
  54089.032    0.2352E-20
  54089.099    0.2389E-20
  54089.167    0.2437E-20
  54089.234    0.2464E-20
  54089.302    0.2497E-20
  54089.370    0.2486E-20
  54089.437    0.2470E-20
  54089.505    0.2469E-20
  54089.572    0.2442E-20
  54089.640    0.2415E-20
  54089.708    0.2378E-20
  54089.775    0.2378E-20
  54089.843    0.2399E-20
  54089.910    0.2448E-20
  54089.978    0.2475E-20
  54090.046    0.2458E-20
  54090.113    0.2431E-20
  54090.181    0.2383E-20
  54090.249    0.2356E-20
  54090.316    0.2335E-20
  54090.384    0.2335E-20
  54090.451    0.2362E-20
  54090.519    0.2356E-20
  54090.587    0.2383E-20
  54090.654    0.2409E-20
  54090.722    0.2447E-20
  54090.789    0.2480E-20
  54090.857    0.2485E-20
  54090.925    0.2447E-20
  54090.992    0.2441E-20
  54091.060    0.2463E-20
  54091.128    0.2468E-20
  54091.195    0.2501E-20
  54091.263    0.2529E-20
  54091.330    0.2540E-20
  54091.398    0.2540E-20
  54091.466    0.2540E-20
  54091.533    0.2567E-20
  54091.601    0.2595E-20
  54091.669    0.2606E-20
  54091.736    0.2646E-20
  54091.804    0.2692E-20
  54091.871    0.2732E-20
  54091.939    0.2785E-20
  54092.007    0.2808E-20
  54092.074    0.2773E-20
  54092.142    0.2726E-20
  54092.209    0.2703E-20
  54092.277    0.2732E-20
  54092.345    0.2802E-20
  54092.412    0.2868E-20
  54092.480    0.2922E-20
  54092.548    0.2984E-20
  54092.615    0.3002E-20
  54092.683    0.3009E-20
  54092.751    0.3015E-20
  54092.818    0.3027E-20
  54092.886    0.2947E-20
  54092.953    0.3015E-20
  54093.021    0.2996E-20
  54093.089    0.2981E-20
  54093.156    0.3047E-20
  54093.224    0.3108E-20
  54093.292    0.3169E-20
  54093.359    0.3174E-20
  54093.427    0.3161E-20
  54093.494    0.3208E-20
  54093.562    0.3255E-20
  54093.630    0.3309E-20
  54093.697    0.3383E-20
  54093.765    0.3396E-20
  54093.833    0.3405E-20
  54093.900    0.3413E-20
  54093.968    0.3417E-20
  54094.035    0.3468E-20
  54094.103    0.3458E-20
  54094.171    0.3475E-20
  54094.238    0.3520E-20
  54094.306    0.3555E-20
  54094.374    0.3592E-20
  54094.441    0.3679E-20
  54094.509    0.3728E-20
  54094.577    0.3779E-20
  54094.644    0.3839E-20
  54094.712    0.3918E-20
  54094.779    0.3969E-20
  54094.847    0.4001E-20
  54094.915    0.4029E-20
  54094.982    0.4070E-20
  54095.050    0.4121E-20
  54095.118    0.4246E-20
  54095.185    0.4367E-20
  54095.253    0.4462E-20
  54095.321    0.4500E-20
  54095.388    0.4476E-20
  54095.456    0.4458E-20
  54095.524    0.4507E-20
  54095.591    0.4604E-20
  54095.659    0.4685E-20
  54095.726    0.4742E-20
  54095.794    0.4794E-20
  54095.862    0.4846E-20
  54095.929    0.4928E-20
  54095.997    0.5005E-20
  54096.065    0.5099E-20
  54096.132    0.5196E-20
  54096.200    0.5293E-20
  54096.268    0.5416E-20
  54096.335    0.5525E-20
  54096.403    0.5633E-20
  54096.471    0.5749E-20
  54096.538    0.5843E-20
  54096.606    0.5996E-20
  54096.673    0.6108E-20
  54096.741    0.6249E-20
  54096.809    0.6402E-20
  54096.876    0.6565E-20
  54096.944    0.6710E-20
  54097.012    0.6821E-20
  54097.079    0.6913E-20
  54097.147    0.7025E-20
  54097.215    0.6985E-20
  54097.282    0.7155E-20
  54097.350    0.7236E-20
  54097.418    0.7410E-20
  54097.485    0.7625E-20
  54097.553    0.7861E-20
  54097.621    0.8013E-20
  54097.688    0.8181E-20
  54097.756    0.8343E-20
  54097.824    0.8439E-20
  54097.891    0.8627E-20
  54097.959    0.8886E-20
  54098.026    0.9088E-20
  54098.094    0.9325E-20
  54098.162    0.9657E-20
  54098.229    0.9991E-20
  54098.297    0.1034E-19
  54098.365    0.1069E-19
  54098.432    0.1104E-19
  54098.500    0.1133E-19
  54098.568    0.1169E-19
  54098.635    0.1211E-19
  54098.703    0.1255E-19
  54098.771    0.1304E-19
  54098.838    0.1350E-19
  54098.906    0.1406E-19
  54098.974    0.1454E-19
  54099.041    0.1504E-19
  54099.109    0.1560E-19
  54099.177    0.1619E-19
  54099.244    0.1691E-19
  54099.312    0.1771E-19
  54099.380    0.1865E-19
  54099.447    0.1953E-19
  54099.515    0.2079E-19
  54099.583    0.2156E-19
  54099.650    0.2240E-19
  54099.718    0.2325E-19
  54099.786    0.2408E-19
  54099.853    0.2517E-19
  54099.921    0.2641E-19
  54099.989    0.2789E-19
  54100.056    0.2950E-19
  54100.124    0.3146E-19
  54100.192    0.3381E-19
  54100.259    0.3710E-19
  54100.327    0.3986E-19
  54100.395    0.4283E-19
  54100.462    0.4588E-19
  54100.530    0.5130E-19
  54100.598    0.5497E-19
  54100.665    0.5880E-19
  54100.733    0.6253E-19
  54100.801    0.6643E-19
  54100.868    0.7006E-19
  54100.936    0.7342E-19
  54101.004    0.7669E-19
  54101.071    0.8128E-19
  54101.139    0.8448E-19
  54101.207    0.8673E-19
  54101.274    0.8928E-19
  54101.342    0.9213E-19
  54101.410    0.9361E-19
  54101.477    0.9366E-19
  54101.545    0.9343E-19
  54101.613    0.9298E-19
  54101.680    0.9333E-19
  54101.748    0.9316E-19
  54101.816    0.9267E-19
  54101.883    0.9155E-19
  54101.951    0.9027E-19
  54102.019    0.8820E-19
  54102.086    0.8568E-19
  54102.154    0.8336E-19
  54102.222    0.8027E-19
  54102.289    0.7539E-19
  54102.357    0.7378E-19
  54102.425    0.7299E-19
  54102.492    0.7221E-19
  54102.560    0.7136E-19
  54102.628    0.7044E-19
  54102.695    0.6947E-19
  54102.763    0.6892E-19
  54102.831    0.6947E-19
  54102.898    0.7064E-19
  54102.966    0.7256E-19
  54103.034    0.7451E-19
  54103.102    0.7688E-19
  54103.169    0.7917E-19
  54103.237    0.8077E-19
  54103.305    0.8437E-19
  54103.372    0.8859E-19
  54103.440    0.9339E-19
  54103.508    0.9793E-19
  54103.575    0.1025E-18
  54103.643    0.1081E-18
  54103.711    0.1131E-18
  54103.778    0.1179E-18
  54103.846    0.1224E-18
  54103.914    0.1269E-18
  54103.981    0.1326E-18
  54104.049    0.1402E-18
  54104.117    0.1471E-18
  54104.184    0.1521E-18
  54104.252    0.1564E-18
  54104.320    0.1573E-18
  54104.387    0.1573E-18
  54104.455    0.1578E-18
  54104.523    0.1560E-18
  54104.591    0.1534E-18
  54104.658    0.1503E-18
  54104.726    0.1454E-18
  54104.794    0.1406E-18
  54104.861    0.1336E-18
  54104.929    0.1262E-18
  54104.997    0.1191E-18
  54105.064    0.1119E-18
  54105.132    0.1027E-18
  54105.200    0.9683E-19
  54105.267    0.9065E-19
  54105.335    0.8432E-19
  54105.403    0.7746E-19
  54105.471    0.7262E-19
  54105.538    0.6819E-19
  54105.606    0.6364E-19
  54105.674    0.5948E-19
  54105.741    0.5604E-19
  54105.809    0.5282E-19
  54105.877    0.5069E-19
  54105.944    0.4827E-19
  54106.012    0.4441E-19
  54106.080    0.4227E-19
  54106.147    0.4002E-19
  54106.215    0.3757E-19
  54106.283    0.3505E-19
  54106.351    0.3338E-19
  54106.418    0.3179E-19
  54106.486    0.3025E-19
  54106.554    0.2876E-19
  54106.621    0.2728E-19
  54106.689    0.2595E-19
  54106.757    0.2470E-19
  54106.824    0.2362E-19
  54106.892    0.2260E-19
  54106.960    0.2163E-19
  54107.028    0.2065E-19
  54107.095    0.1977E-19
  54107.163    0.1918E-19
  54107.231    0.1841E-19
  54107.298    0.1771E-19
  54107.366    0.1708E-19
  54107.434    0.1624E-19
  54107.501    0.1550E-19
  54107.569    0.1489E-19
  54107.637    0.1431E-19
  54107.705    0.1396E-19
  54107.772    0.1358E-19
  54107.840    0.1314E-19
  54107.908    0.1280E-19
  54107.975    0.1240E-19
  54108.043    0.1198E-19
  54108.111    0.1161E-19
  54108.178    0.1118E-19
  54108.246    0.1080E-19
  54108.314    0.1043E-19
  54108.382    0.1030E-19
  54108.449    0.1027E-19
  54108.517    0.1019E-19
  54108.585    0.1008E-19
  54108.652    0.9945E-20
  54108.720    0.9714E-20
  54108.788    0.9433E-20
  54108.856    0.9094E-20
  54108.923    0.8815E-20
  54108.991    0.8568E-20
  54109.059    0.8415E-20
  54109.126    0.8252E-20
  54109.194    0.8132E-20
  54109.262    0.8081E-20
  54109.329    0.8071E-20
  54109.397    0.8043E-20
  54109.465    0.7948E-20
  54109.533    0.7886E-20
  54109.600    0.7755E-20
  54109.668    0.7543E-20
  54109.736    0.7299E-20
  54109.803    0.7115E-20
  54109.871    0.6964E-20
  54109.939    0.6916E-20
  54110.007    0.6886E-20
  54110.074    0.6841E-20
  54110.142    0.6798E-20
  54110.210    0.6743E-20
  54110.277    0.6493E-20
  54110.345    0.6404E-20
  54110.413    0.6405E-20
  54110.481    0.6411E-20
  54110.548    0.6422E-20
  54110.616    0.6419E-20
  54110.684    0.6370E-20
  54110.752    0.6315E-20
  54110.819    0.6241E-20
  54110.887    0.6153E-20
  54110.955    0.6034E-20
  54111.022    0.5982E-20
  54111.090    0.5930E-20
  54111.158    0.5866E-20
  54111.226    0.5779E-20
  54111.293    0.5710E-20
  54111.361    0.5635E-20
  54111.429    0.5611E-20
  54111.496    0.5629E-20
  54111.564    0.5623E-20
  54111.632    0.5563E-20
  54111.700    0.5520E-20
  54111.767    0.5449E-20
  54111.835    0.5407E-20
  54111.903    0.5401E-20
  54111.971    0.5419E-20
  54112.038    0.5437E-20
  54112.106    0.5438E-20
  54112.174    0.5413E-20
  54112.241    0.5371E-20
  54112.309    0.5313E-20
  54112.377    0.5290E-20
  54112.445    0.5273E-20
  54112.512    0.5251E-20
  54112.580    0.5216E-20
  54112.648    0.5199E-20
  54112.715    0.5200E-20
  54112.783    0.5178E-20
  54112.851    0.5186E-20
  54112.919    0.5195E-20
  54112.986    0.5160E-20
  54113.054    0.5147E-20
  54113.122    0.5188E-20
  54113.190    0.5216E-20
  54113.257    0.5243E-20
  54113.325    0.5242E-20
  54113.393    0.5247E-20
  54113.461    0.5235E-20
  54113.528    0.5206E-20
  54113.596    0.5225E-20
  54113.664    0.5229E-20
  54113.731    0.5248E-20
  54113.799    0.5248E-20
  54113.867    0.5240E-20
  54113.935    0.5216E-20
  54114.002    0.5174E-20
  54114.070    0.5132E-20
  54114.138    0.5103E-20
  54114.206    0.5097E-20
  54114.273    0.5114E-20
  54114.341    0.5171E-20
  54114.409    0.5245E-20
  54114.477    0.5309E-20
  54114.544    0.5344E-20
  54114.612    0.5362E-20
  54114.680    0.5427E-20
  54114.748    0.5432E-20
  54114.815    0.5421E-20
  54114.883    0.5415E-20
  54114.951    0.5386E-20
  54115.018    0.5380E-20
  54115.086    0.5386E-20
  54115.154    0.5463E-20
  54115.222    0.5540E-20
  54115.289    0.5570E-20
  54115.357    0.5596E-20
  54115.425    0.5656E-20
  54115.493    0.5736E-20
  54115.560    0.5792E-20
  54115.628    0.5842E-20
  54115.696    0.5875E-20
  54115.764    0.5897E-20
  54115.831    0.5955E-20
  54115.899    0.6007E-20
  54115.967    0.6042E-20
  54116.035    0.6103E-20
  54116.102    0.6206E-20
  54116.170    0.6312E-20
  54116.238    0.6381E-20
  54116.306    0.6431E-20
  54116.373    0.6520E-20
  54116.441    0.6631E-20
  54116.509    0.6781E-20
  54116.577    0.6937E-20
  54116.644    0.6880E-20
  54116.712    0.6987E-20
  54116.780    0.7074E-20
  54116.848    0.7193E-20
  54116.915    0.7351E-20
  54116.983    0.7513E-20
  54117.051    0.7629E-20
  54117.119    0.7679E-20
  54117.186    0.7684E-20
  54117.254    0.7666E-20
  54117.322    0.7714E-20
  54117.390    0.7764E-20
  54117.457    0.7817E-20
  54117.525    0.7909E-20
  54117.593    0.7891E-20
  54117.661    0.7900E-20
  54117.728    0.7847E-20
  54117.796    0.7870E-20
  54117.864    0.7917E-20
  54117.932    0.7830E-20
  54117.999    0.7751E-20
  54118.067    0.7715E-20
  54118.135    0.7825E-20
  54118.203    0.7948E-20
  54118.270    0.7998E-20
  54118.338    0.8111E-20
  54118.406    0.8177E-20
  54118.474    0.8341E-20
  54118.541    0.8523E-20
  54118.609    0.8757E-20
  54118.677    0.8944E-20
  54118.745    0.9089E-20
  54118.812    0.9286E-20
  54118.880    0.9460E-20
  54118.948    0.9564E-20
  54119.016    0.9670E-20
  54119.083    0.9702E-20
  54119.151    0.9770E-20
  54119.219    0.9884E-20
  54119.287    0.1006E-19
  54119.355    0.1018E-19
  54119.422    0.1028E-19
  54119.490    0.1036E-19
  54119.558    0.1038E-19
  54119.626    0.1061E-19
  54119.693    0.1083E-19
  54119.761    0.1110E-19
  54119.829    0.1137E-19
  54119.897    0.1158E-19
  54119.964    0.1176E-19
  54120.032    0.1194E-19
  54120.100    0.1213E-19
  54120.168    0.1253E-19
  54120.235    0.1300E-19
  54120.303    0.1324E-19
  54120.371    0.1344E-19
  54120.439    0.1365E-19
  54120.507    0.1396E-19
  54120.574    0.1442E-19
  54120.642    0.1486E-19
  54120.710    0.1530E-19
  54120.778    0.1577E-19
  54120.845    0.1601E-19
  54120.913    0.1628E-19
  54120.981    0.1665E-19
  54121.049    0.1705E-19
  54121.116    0.1763E-19
  54121.184    0.1817E-19
  54121.252    0.1857E-19
  54121.320    0.1905E-19
  54121.388    0.1980E-19
  54121.455    0.2066E-19
  54121.523    0.2168E-19
  54121.591    0.2259E-19
  54121.659    0.2319E-19
  54121.726    0.2370E-19
  54121.794    0.2420E-19
  54121.862    0.2479E-19
  54121.930    0.2568E-19
  54121.998    0.2696E-19
  54122.065    0.2803E-19
  54122.133    0.2922E-19
  54122.201    0.3053E-19
  54122.269    0.3225E-19
  54122.336    0.3412E-19
  54122.404    0.3589E-19
  54122.472    0.3750E-19
  54122.540    0.3885E-19
  54122.608    0.4057E-19
  54122.675    0.4244E-19
  54122.743    0.4425E-19
  54122.811    0.4629E-19
  54122.879    0.4937E-19
  54122.946    0.5250E-19
  54123.014    0.5486E-19
  54123.082    0.5745E-19
  54123.150    0.6060E-19
  54123.218    0.6443E-19
  54123.285    0.6904E-19
  54123.353    0.7398E-19
  54123.421    0.7863E-19
  54123.489    0.8453E-19
  54123.556    0.9143E-19
  54123.624    0.9823E-19
  54123.692    0.1048E-18
  54123.760    0.1150E-18
  54123.828    0.1211E-18
  54123.895    0.1279E-18
  54123.963    0.1355E-18
  54124.031    0.1434E-18
  54124.099    0.1514E-18
  54124.167    0.1621E-18
  54124.234    0.1690E-18
  54124.302    0.1755E-18
  54124.370    0.1818E-18
  54124.438    0.1865E-18
  54124.505    0.1908E-18
  54124.573    0.1954E-18
  54124.641    0.1988E-18
  54124.709    0.2018E-18
  54124.777    0.2032E-18
  54124.844    0.2028E-18
  54124.912    0.2009E-18
  54124.980    0.1959E-18
  54125.048    0.1898E-18
  54125.116    0.1870E-18
  54125.183    0.1841E-18
  54125.251    0.1801E-18
  54125.319    0.1769E-18
  54125.387    0.1751E-18
  54125.455    0.1734E-18
  54125.522    0.1712E-18
  54125.590    0.1704E-18
  54125.658    0.1707E-18
  54125.726    0.1729E-18
  54125.793    0.1764E-18
  54125.861    0.1792E-18
  54125.929    0.1837E-18
  54125.997    0.1898E-18
  54126.065    0.1939E-18
  54126.132    0.1997E-18
  54126.200    0.2049E-18
  54126.268    0.2088E-18
  54126.336    0.2148E-18
  54126.404    0.2211E-18
  54126.471    0.2281E-18
  54126.539    0.2348E-18
  54126.607    0.2380E-18
  54126.675    0.2409E-18
  54126.743    0.2425E-18
  54126.810    0.2402E-18
  54126.878    0.2348E-18
  54126.946    0.2274E-18
  54127.014    0.2205E-18
  54127.082    0.2140E-18
  54127.149    0.2066E-18
  54127.217    0.1993E-18
  54127.285    0.1906E-18
  54127.353    0.1805E-18
  54127.421    0.1708E-18
  54127.488    0.1617E-18
  54127.556    0.1496E-18
  54127.624    0.1411E-18
  54127.692    0.1331E-18
  54127.760    0.1251E-18
  54127.827    0.1181E-18
  54127.895    0.1075E-18
  54127.963    0.1025E-18
  54128.031    0.9744E-19
  54128.099    0.9189E-19
  54128.167    0.8663E-19
  54128.234    0.8194E-19
  54128.302    0.7760E-19
  54128.370    0.7179E-19
  54128.438    0.6804E-19
  54128.506    0.6500E-19
  54128.573    0.6224E-19
  54128.641    0.5918E-19
  54128.709    0.5601E-19
  54128.777    0.5318E-19
  54128.845    0.5083E-19
  54128.912    0.4952E-19
  54128.980    0.4575E-19
  54129.048    0.4397E-19
  54129.116    0.4188E-19
  54129.184    0.3956E-19
  54129.251    0.3761E-19
  54129.319    0.3546E-19
  54129.387    0.3411E-19
  54129.455    0.3311E-19
  54129.523    0.3219E-19
  54129.591    0.3134E-19
  54129.658    0.3045E-19
  54129.726    0.2933E-19
  54129.794    0.2813E-19
  54129.862    0.2697E-19
  54129.930    0.2603E-19
  54129.997    0.2528E-19
  54130.065    0.2459E-19
  54130.133    0.2388E-19
  54130.201    0.2311E-19
  54130.269    0.2235E-19
  54130.336    0.2154E-19
  54130.404    0.2100E-19
  54130.472    0.2043E-19
  54130.540    0.1957E-19
  54130.608    0.1914E-19
  54130.676    0.1875E-19
  54130.743    0.1853E-19
  54130.811    0.1826E-19
  54130.879    0.1795E-19
  54130.947    0.1762E-19
  54131.015    0.1736E-19
  54131.083    0.1713E-19
  54131.150    0.1694E-19
  54131.218    0.1675E-19
  54131.286    0.1649E-19
  54131.354    0.1610E-19
  54131.422    0.1574E-19
  54131.489    0.1535E-19
  54131.557    0.1504E-19
  54131.625    0.1485E-19
  54131.693    0.1471E-19
  54131.761    0.1457E-19
  54131.829    0.1448E-19
  54131.896    0.1430E-19
  54131.964    0.1410E-19
  54132.032    0.1392E-19
  54132.100    0.1374E-19
  54132.168    0.1352E-19
  54132.236    0.1345E-19
  54132.303    0.1341E-19
  54132.371    0.1335E-19
  54132.439    0.1324E-19
  54132.507    0.1311E-19
  54132.575    0.1295E-19
  54132.642    0.1285E-19
  54132.710    0.1284E-19
  54132.778    0.1280E-19
  54132.846    0.1272E-19
  54132.914    0.1253E-19
  54132.982    0.1231E-19
  54133.049    0.1211E-19
  54133.117    0.1210E-19
  54133.185    0.1219E-19
  54133.253    0.1224E-19
  54133.321    0.1227E-19
  54133.389    0.1228E-19
  54133.456    0.1233E-19
  54133.524    0.1223E-19
  54133.592    0.1206E-19
  54133.660    0.1187E-19
  54133.728    0.1174E-19
  54133.796    0.1165E-19
  54133.863    0.1157E-19
  54133.931    0.1163E-19
  54133.999    0.1169E-19
  54134.067    0.1179E-19
  54134.135    0.1187E-19
  54134.203    0.1199E-19
  54134.270    0.1214E-19
  54134.338    0.1219E-19
  54134.406    0.1219E-19
  54134.474    0.1218E-19
  54134.542    0.1219E-19
  54134.610    0.1228E-19
  54134.678    0.1236E-19
  54134.745    0.1241E-19
  54134.813    0.1241E-19
  54134.881    0.1235E-19
  54134.949    0.1232E-19
  54135.017    0.1243E-19
  54135.085    0.1254E-19
  54135.152    0.1262E-19
  54135.220    0.1264E-19
  54135.288    0.1271E-19
  54135.356    0.1284E-19
  54135.424    0.1306E-19
  54135.492    0.1337E-19
  54135.559    0.1364E-19
  54135.627    0.1391E-19
  54135.695    0.1414E-19
  54135.763    0.1428E-19
  54135.831    0.1434E-19
  54135.899    0.1435E-19
  54135.967    0.1449E-19
  54136.034    0.1470E-19
  54136.102    0.1484E-19
  54136.170    0.1493E-19
  54136.238    0.1526E-19
  54136.306    0.1553E-19
  54136.374    0.1574E-19
  54136.441    0.1599E-19
  54136.509    0.1630E-19
  54136.577    0.1656E-19
  54136.645    0.1676E-19
  54136.713    0.1725E-19
  54136.781    0.1768E-19
  54136.849    0.1805E-19
  54136.916    0.1829E-19
  54136.984    0.1852E-19
  54137.052    0.1882E-19
  54137.120    0.1913E-19
  54137.188    0.1946E-19
  54137.256    0.1977E-19
  54137.324    0.2020E-19
  54137.391    0.2041E-19
  54137.459    0.2104E-19
  54137.527    0.2203E-19
  54137.595    0.2288E-19
  54137.663    0.2364E-19
  54137.731    0.2425E-19
  54137.799    0.2485E-19
  54137.866    0.2532E-19
  54137.934    0.2607E-19
  54138.002    0.2709E-19
  54138.070    0.2825E-19
  54138.138    0.2921E-19
  54138.206    0.3002E-19
  54138.274    0.3095E-19
  54138.341    0.3175E-19
  54138.409    0.3289E-19
  54138.477    0.3395E-19
  54138.545    0.3500E-19
  54138.613    0.3735E-19
  54138.681    0.3912E-19
  54138.749    0.4048E-19
  54138.816    0.4199E-19
  54138.884    0.4317E-19
  54138.952    0.4413E-19
  54139.020    0.4461E-19
  54139.088    0.4651E-19
  54139.156    0.4882E-19
  54139.224    0.5064E-19
  54139.291    0.5242E-19
  54139.359    0.5406E-19
  54139.427    0.5554E-19
  54139.495    0.5761E-19
  54139.563    0.6008E-19
  54139.631    0.6264E-19
  54139.699    0.6528E-19
  54139.766    0.6812E-19
  54139.834    0.7124E-19
  54139.902    0.7500E-19
  54139.970    0.8011E-19
  54140.038    0.8349E-19
  54140.106    0.8757E-19
  54140.174    0.9317E-19
  54140.242    0.9965E-19
  54140.309    0.1060E-18
  54140.377    0.1146E-18
  54140.445    0.1214E-18
  54140.513    0.1291E-18
  54140.581    0.1376E-18
  54140.649    0.1469E-18
  54140.717    0.1615E-18
  54140.784    0.1726E-18
  54140.852    0.1837E-18
  54140.920    0.1963E-18
  54140.988    0.2098E-18
  54141.056    0.2236E-18
  54141.124    0.2352E-18
  54141.192    0.2465E-18
  54141.260    0.2590E-18
  54141.327    0.2680E-18
  54141.395    0.2795E-18
  54141.463    0.2907E-18
  54141.531    0.3014E-18
  54141.599    0.3111E-18
  54141.667    0.3183E-18
  54141.735    0.3225E-18
  54141.803    0.3232E-18
  54141.870    0.3198E-18
  54141.938    0.3171E-18
  54142.006    0.3144E-18
  54142.074    0.3113E-18
  54142.142    0.3091E-18
  54142.210    0.3079E-18
  54142.278    0.3074E-18
  54142.346    0.3079E-18
  54142.413    0.3072E-18
  54142.481    0.3038E-18
  54142.549    0.3009E-18
  54142.617    0.2971E-18
  54142.685    0.2927E-18
  54142.753    0.2900E-18
  54142.821    0.2882E-18
  54142.889    0.2864E-18
  54142.957    0.2844E-18
  54143.024    0.2823E-18
  54143.092    0.2796E-18
  54143.160    0.2752E-18
  54143.228    0.2701E-18
  54143.296    0.2632E-18
  54143.364    0.2536E-18
  54143.432    0.2434E-18
  54143.500    0.2336E-18
  54143.567    0.2252E-18
  54143.635    0.2153E-18
  54143.703    0.2032E-18
  54143.771    0.1917E-18
  54143.839    0.1822E-18
  54143.907    0.1731E-18
  54143.975    0.1649E-18
  54144.043    0.1583E-18
  54144.111    0.1479E-18
  54144.178    0.1395E-18
  54144.246    0.1324E-18
  54144.314    0.1263E-18
  54144.382    0.1200E-18
  54144.450    0.1130E-18
  54144.518    0.1044E-18
  54144.586    0.9903E-19
  54144.654    0.9421E-19
  54144.722    0.9008E-19
  54144.789    0.8599E-19
  54144.857    0.8209E-19
  54144.925    0.8097E-19
  54144.993    0.7769E-19
  54145.061    0.7537E-19
  54145.129    0.7279E-19
  54145.197    0.7017E-19
  54145.265    0.6818E-19
  54145.333    0.6680E-19
  54145.400    0.6521E-19
  54145.468    0.6330E-19
  54145.536    0.6061E-19
  54145.604    0.5767E-19
  54145.672    0.5516E-19
  54145.740    0.5311E-19
  54145.808    0.5103E-19
  54145.876    0.4923E-19
  54145.944    0.4759E-19
  54146.012    0.4494E-19
  54146.079    0.4348E-19
  54146.147    0.4179E-19
  54146.215    0.4046E-19
  54146.283    0.3926E-19
  54146.351    0.3838E-19
  54146.419    0.3760E-19
  54146.487    0.3637E-19
  54146.555    0.3578E-19
  54146.623    0.3507E-19
  54146.691    0.3402E-19
  54146.758    0.3304E-19
  54146.826    0.3238E-19
  54146.894    0.3170E-19
  54146.962    0.3119E-19
  54147.030    0.3072E-19
  54147.098    0.3025E-19
  54147.166    0.2988E-19
  54147.234    0.2946E-19
  54147.302    0.2907E-19
  54147.370    0.2868E-19
  54147.437    0.2827E-19
  54147.505    0.2794E-19
  54147.573    0.2765E-19
  54147.641    0.2755E-19
  54147.709    0.2753E-19
  54147.777    0.2739E-19
  54147.845    0.2732E-19
  54147.913    0.2739E-19
  54147.981    0.2769E-19
  54148.049    0.2806E-19
  54148.117    0.2813E-19
  54148.184    0.2833E-19
  54148.252    0.2831E-19
  54148.320    0.2853E-19
  54148.388    0.2900E-19
  54148.456    0.2957E-19
  54148.524    0.3011E-19
  54148.592    0.3028E-19
  54148.660    0.3022E-19
  54148.728    0.3028E-19
  54148.796    0.3068E-19
  54148.864    0.3115E-19
  54148.931    0.3211E-19
  54148.999    0.3283E-19
  54149.067    0.3337E-19
  54149.135    0.3406E-19
  54149.203    0.3618E-19
  54149.271    0.3726E-19
  54149.339    0.3794E-19
  54149.407    0.3834E-19
  54149.475    0.3851E-19
  54149.543    0.3929E-19
  54149.611    0.4014E-19
  54149.678    0.4122E-19
  54149.746    0.4261E-19
  54149.814    0.4397E-19
  54149.882    0.4562E-19
  54149.950    0.4805E-19
  54150.018    0.5011E-19
  54150.086    0.5214E-19
  54150.154    0.5376E-19
  54150.222    0.5562E-19
  54150.290    0.5780E-19
  54150.358    0.6050E-19
  54150.426    0.6369E-19
  54150.494    0.6704E-19
  54150.561    0.7066E-19
  54150.629    0.7417E-19
  54150.697    0.8015E-19
  54150.765    0.8499E-19
  54150.833    0.8980E-19
  54150.901    0.9527E-19
  54150.969    0.1005E-18
  54151.037    0.1051E-18
  54151.105    0.1124E-18
  54151.173    0.1172E-18
  54151.241    0.1225E-18
  54151.309    0.1300E-18
  54151.376    0.1392E-18
  54151.444    0.1491E-18
  54151.512    0.1594E-18
  54151.580    0.1681E-18
  54151.648    0.1792E-18
  54151.716    0.1910E-18
  54151.784    0.2044E-18
  54151.852    0.2192E-18
  54151.920    0.2340E-18
  54151.988    0.2486E-18
  54152.056    0.2692E-18
  54152.124    0.2820E-18
  54152.192    0.2924E-18
  54152.260    0.3032E-18
  54152.327    0.3142E-18
  54152.395    0.3196E-18
  54152.463    0.3225E-18
  54152.531    0.3237E-18
  54152.599    0.3233E-18
  54152.667    0.3194E-18
  54152.735    0.3144E-18
  54152.803    0.3066E-18
  54152.871    0.2995E-18
  54152.939    0.2919E-18
  54153.007    0.2829E-18
  54153.075    0.2738E-18
  54153.143    0.2626E-18
  54153.211    0.2474E-18
  54153.279    0.2356E-18
  54153.346    0.2229E-18
  54153.414    0.2092E-18
  54153.482    0.1959E-18
  54153.550    0.1845E-18
  54153.618    0.1760E-18
  54153.686    0.1683E-18
  54153.754    0.1592E-18
  54153.822    0.1543E-18
  54153.890    0.1506E-18
  54153.958    0.1462E-18
  54154.026    0.1423E-18
  54154.094    0.1371E-18
  54154.162    0.1310E-18
  54154.230    0.1264E-18
  54154.298    0.1229E-18
  54154.365    0.1208E-18
  54154.433    0.1204E-18
  54154.501    0.1198E-18
  54154.569    0.1205E-18
  54154.637    0.1197E-18
  54154.705    0.1180E-18
  54154.773    0.1181E-18
  54154.841    0.1181E-18
  54154.909    0.1181E-18
  54154.977    0.1191E-18
  54155.045    0.1196E-18
  54155.113    0.1196E-18
  54155.181    0.1196E-18
  54155.249    0.1197E-18
  54155.317    0.1205E-18
  54155.385    0.1218E-18
  54155.453    0.1231E-18
  54155.521    0.1222E-18
  54155.588    0.1219E-18
  54155.656    0.1227E-18
  54155.724    0.1231E-18
  54155.792    0.1230E-18
  54155.860    0.1237E-18
  54155.928    0.1233E-18
  54155.996    0.1233E-18
  54156.064    0.1246E-18
  54156.132    0.1260E-18
  54156.200    0.1271E-18
  54156.268    0.1298E-18
  54156.336    0.1322E-18
  54156.404    0.1347E-18
  54156.472    0.1380E-18
  54156.540    0.1416E-18
  54156.608    0.1465E-18
  54156.676    0.1514E-18
  54156.744    0.1562E-18
  54156.812    0.1594E-18
  54156.879    0.1623E-18
  54156.947    0.1669E-18
  54157.015    0.1702E-18
  54157.083    0.1722E-18
  54157.151    0.1725E-18
  54157.219    0.1719E-18
  54157.287    0.1710E-18
  54157.355    0.1694E-18
  54157.423    0.1663E-18
  54157.491    0.1631E-18
  54157.559    0.1586E-18
  54157.627    0.1491E-18
  54157.695    0.1426E-18
  54157.763    0.1362E-18
  54157.831    0.1292E-18
  54157.899    0.1222E-18
  54157.967    0.1153E-18
  54158.035    0.1066E-18
  54158.103    0.1017E-18
  54158.171    0.9576E-19
  54158.239    0.9032E-19
  54158.307    0.8530E-19
  54158.375    0.8024E-19
  54158.442    0.7632E-19
  54158.510    0.7249E-19
  54158.578    0.6913E-19
  54158.646    0.6640E-19
  54158.714    0.6421E-19
  54158.782    0.6239E-19
  54158.850    0.6056E-19
  54158.918    0.5910E-19
  54158.986    0.5814E-19
  54159.054    0.5751E-19
  54159.122    0.5638E-19
  54159.190    0.5458E-19
  54159.258    0.5242E-19
  54159.326    0.5050E-19
  54159.394    0.4934E-19
  54159.462    0.4850E-19
  54159.530    0.4758E-19
  54159.598    0.4598E-19
  54159.666    0.4491E-19
  54159.734    0.4336E-19
  54159.802    0.4188E-19
  54159.870    0.4054E-19
  54159.938    0.3902E-19
  54160.006    0.3764E-19
  54160.074    0.3549E-19
  54160.142    0.3382E-19
  54160.210    0.3212E-19
  54160.278    0.3069E-19
  54160.345    0.2937E-19
  54160.413    0.2813E-19
  54160.481    0.2693E-19
  54160.549    0.2591E-19
  54160.617    0.2509E-19
  54160.685    0.2436E-19
  54160.753    0.2360E-19
  54160.821    0.2274E-19
  54160.889    0.2200E-19
  54160.957    0.2093E-19
  54161.025    0.1957E-19
  54161.093    0.1860E-19
  54161.161    0.1787E-19
  54161.229    0.1730E-19
  54161.297    0.1676E-19
  54161.365    0.1628E-19
  54161.433    0.1594E-19
  54161.501    0.1555E-19
  54161.569    0.1496E-19
  54161.637    0.1454E-19
  54161.705    0.1410E-19
  54161.773    0.1388E-19
  54161.841    0.1361E-19
  54161.909    0.1336E-19
  54161.977    0.1307E-19
  54162.045    0.1266E-19
  54162.113    0.1227E-19
  54162.181    0.1186E-19
  54162.249    0.1152E-19
  54162.317    0.1131E-19
  54162.385    0.1117E-19
  54162.453    0.1099E-19
  54162.521    0.1068E-19
  54162.589    0.1044E-19
  54162.657    0.1023E-19
  54162.725    0.1000E-19
  54162.793    0.9847E-20
  54162.861    0.9724E-20
  54162.929    0.9521E-20
  54162.997    0.9229E-20
  54163.065    0.8985E-20
  54163.133    0.8760E-20
  54163.201    0.8571E-20
  54163.269    0.8411E-20
  54163.336    0.8281E-20
  54163.404    0.8020E-20
  54163.472    0.7823E-20
  54163.540    0.7699E-20
  54163.608    0.7504E-20
  54163.676    0.7369E-20
  54163.744    0.7256E-20
  54163.812    0.7148E-20
  54163.880    0.7070E-20
  54163.948    0.7031E-20
  54164.016    0.7017E-20
  54164.084    0.6944E-20
  54164.152    0.6852E-20
  54164.220    0.6722E-20
  54164.288    0.6601E-20
  54164.356    0.6518E-20
  54164.424    0.6414E-20
  54164.492    0.6318E-20
  54164.560    0.6248E-20
  54164.628    0.6221E-20
  54164.696    0.6180E-20
  54164.764    0.6099E-20
  54164.832    0.6008E-20
  54164.900    0.5930E-20
  54164.968    0.5815E-20
  54165.036    0.5677E-20
  54165.104    0.5542E-20
  54165.172    0.5483E-20
  54165.240    0.5467E-20
  54165.308    0.5494E-20
  54165.376    0.5453E-20
  54165.444    0.5381E-20
  54165.512    0.5309E-20
  54165.580    0.5231E-20
  54165.648    0.5156E-20
  54165.716    0.5110E-20
  54165.784    0.5065E-20
  54165.852    0.5014E-20
  54165.920    0.5021E-20
  54165.988    0.4943E-20
  54166.056    0.4915E-20
  54166.124    0.4903E-20
  54166.192    0.4883E-20
  54166.260    0.4880E-20
  54166.328    0.4902E-20
  54166.396    0.4937E-20
  54166.464    0.4941E-20
  54166.532    0.4905E-20
  54166.600    0.4842E-20
  54166.668    0.4821E-20
  54166.736    0.4850E-20
  54166.804    0.4862E-20
  54166.872    0.4888E-20
  54166.940    0.4877E-20
  54167.008    0.4805E-20
  54167.076    0.4705E-20
  54167.144    0.4636E-20
  54167.212    0.4605E-20
  54167.280    0.4629E-20
  54167.348    0.4619E-20
  54167.416    0.4561E-20
  54167.484    0.4457E-20
  54167.552    0.4343E-20
  54167.620    0.4279E-20
  54167.688    0.4219E-20
  54167.756    0.4160E-20
  54167.824    0.4145E-20
  54167.892    0.4101E-20
  54167.960    0.4023E-20
  54168.028    0.3992E-20
  54168.096    0.3954E-20
  54168.164    0.3915E-20
  54168.232    0.3866E-20
  54168.300    0.3809E-20
  54168.368    0.3826E-20
  54168.436    0.3836E-20
  54168.504    0.3787E-20
  54168.572    0.3689E-20
  54168.640    0.3602E-20
  54168.708    0.3520E-20
  54168.776    0.3476E-20
  54168.844    0.3467E-20
  54168.912    0.3456E-20
  54168.980    0.3443E-20
  54169.048    0.3423E-20
  54169.116    0.3351E-20
  54169.184    0.3268E-20
  54169.252    0.3271E-20
  54169.321    0.3260E-20
  54169.389    0.3190E-20
  54169.457    0.3085E-20
  54169.525    0.3001E-20
  54169.593    0.2973E-20
  54169.661    0.2942E-20
  54169.729    0.2911E-20
  54169.797    0.2874E-20
  54169.865    0.2856E-20
  54169.933    0.2918E-20
  54170.001    0.2937E-20
  54170.069    0.2901E-20
  54170.137    0.2730E-20
  54170.205    0.2666E-20
  54170.273    0.2654E-20
  54170.341    0.2689E-20
  54170.409    0.2695E-20
  54170.477    0.2677E-20
  54170.545    0.2671E-20
  54170.613    0.2660E-20
  54170.681    0.2648E-20
  54170.749    0.2619E-20
  54170.817    0.2568E-20
  54170.885    0.2512E-20
  54170.953    0.2473E-20
  54171.021    0.2468E-20
  54171.089    0.2484E-20
  54171.157    0.2545E-20
  54171.225    0.2602E-20
  54171.293    0.2608E-20
  54171.361    0.2573E-20
  54171.429    0.2551E-20
  54171.497    0.2517E-20
  54171.565    0.2434E-20
  54171.633    0.2375E-20
  54171.701    0.2343E-20
  54171.769    0.2305E-20
  54171.837    0.2311E-20
  54171.905    0.2289E-20
  54171.973    0.2258E-20
  54172.041    0.2221E-20
  54172.109    0.2185E-20
  54172.177    0.2160E-20
  54172.245    0.2144E-20
  54172.314    0.2149E-20
  54172.382    0.2175E-20
  54172.450    0.2190E-20
  54172.518    0.2190E-20
  54172.586    0.2200E-20
  54172.654    0.2180E-20
  54172.722    0.2139E-20
  54172.790    0.2104E-20
  54172.858    0.2089E-20
  54172.926    0.2083E-20
  54172.994    0.2063E-20
  54173.062    0.2044E-20
  54173.130    0.2039E-20
  54173.198    0.2044E-20
  54173.266    0.1999E-20
  54173.334    0.1960E-20
  54173.402    0.1965E-20
  54173.470    0.1975E-20
  54173.538    0.1945E-20
  54173.606    0.1921E-20
  54173.674    0.1907E-20
  54173.742    0.1893E-20
  54173.810    0.1883E-20
  54173.878    0.1869E-20
  54173.946    0.1831E-20
  54174.014    0.1794E-20
  54174.082    0.1770E-20
  54174.150    0.1775E-20
  54174.218    0.1789E-20
  54174.287    0.1789E-20
  54174.355    0.1779E-20
  54174.423    0.1775E-20
  54174.491    0.1779E-20
  54174.559    0.1761E-20
  54174.627    0.1756E-20
  54174.695    0.1761E-20
  54174.763    0.1761E-20
  54174.831    0.1756E-20
  54174.899    0.1779E-20
  54174.967    0.1788E-20
  54175.035    0.1788E-20
  54175.103    0.1770E-20
  54175.171    0.1760E-20
  54175.239    0.1719E-20
  54175.307    0.1705E-20
  54175.375    0.1687E-20
  54175.443    0.1692E-20
  54175.511    0.1696E-20
  54175.579    0.1660E-20
  54175.647    0.1611E-20
  54175.715    0.1597E-20
  54175.783    0.1588E-20
  54175.852    0.1562E-20
  54175.920    0.1527E-20
  54175.988    0.1497E-20
  54176.056    0.1501E-20
  54176.124    0.1497E-20
  54176.192    0.1492E-20
  54176.260    0.1484E-20
  54176.328    0.1488E-20
  54176.396    0.1483E-20
  54176.464    0.1445E-20
  54176.532    0.1424E-20
  54176.600    0.1432E-20
  54176.668    0.1436E-20
  54176.736    0.1453E-20
  54176.804    0.1462E-20
  54176.872    0.1449E-20
  54176.940    0.1462E-20
  54177.008    0.1453E-20
  54177.076    0.1423E-20
  54177.145    0.1406E-20
  54177.213    0.1410E-20
  54177.281    0.1436E-20
  54177.349    0.1427E-20
  54177.417    0.1427E-20
  54177.485    0.1448E-20
  54177.553    0.1448E-20
  54177.621    0.1436E-20
  54177.689    0.1414E-20
  54177.757    0.1385E-20
  54177.825    0.1318E-20
  54177.893    0.1269E-20
  54177.961    0.1285E-20
  54178.029    0.1306E-20
  54178.097    0.1306E-20
  54178.165    0.1306E-20
  54178.233    0.1285E-20
  54178.302    0.1269E-20
  54178.370    0.1277E-20
  54178.438    0.1269E-20
  54178.506    0.1220E-20
  54178.574    0.1204E-20
  54178.642    0.1212E-20
  54178.710    0.1232E-20
  54178.778    0.1272E-20
  54178.846    0.1281E-20
  54178.914    0.1268E-20
  54178.982    0.1228E-20
  54179.050    0.1195E-20
  54179.118    0.1191E-20
  54179.186    0.1179E-20
  54179.254    0.1191E-20
  54179.322    0.1199E-20
  54179.391    0.1199E-20
  54179.459    0.1167E-20
  54179.527    0.1135E-20
  54179.595    0.1128E-20
  54179.663    0.1147E-20
  54179.731    0.1179E-20
  54179.799    0.1187E-20
  54179.867    0.1159E-20
  54179.935    0.1135E-20
  54180.003    0.1119E-20
  54180.071    0.1127E-20
  54180.139    0.1112E-20
  54180.207    0.1100E-20
  54180.275    0.1096E-20
  54180.343    0.1092E-20
  54180.412    0.1084E-20
  54180.480    0.1076E-20
  54180.548    0.1100E-20
  54180.616    0.1123E-20
  54180.684    0.1103E-20
  54180.752    0.1068E-20
  54180.820    0.1057E-20
  54180.888    0.1049E-20
  54180.956    0.1033E-20
  54181.024    0.1033E-20
  54181.092    0.1041E-20
  54181.160    0.1068E-20
  54181.228    0.1091E-20
  54181.297    0.1083E-20
  54181.365    0.1072E-20
  54181.433    0.1041E-20
  54181.501    0.1045E-20
  54181.569    0.1072E-20
  54181.637    0.1079E-20
  54181.705    0.1021E-20
  54181.773    0.9756E-21
  54181.841    0.9642E-21
  54181.909    0.9528E-21
  54181.977    0.9565E-21
  54182.045    0.9678E-21
  54182.113    0.9753E-21
  54182.182    0.9943E-21
  54182.250    0.9601E-21
  54182.318    0.9001E-21
  54182.386    0.8594E-21
  54182.454    0.8741E-21
  54182.522    0.8926E-21
  54182.590    0.9000E-21
  54182.658    0.8851E-21
  54182.726    0.8628E-21
  54182.794    0.8261E-21
  54182.862    0.8115E-21
  54182.930    0.8078E-21
  54182.999    0.8333E-21
  54183.067    0.8626E-21
  54183.135    0.8811E-21
  54183.203    0.8959E-21
  54183.271    0.9107E-21
  54183.339    0.9181E-21
  54183.407    0.9293E-21
  54183.475    0.9405E-21
  54183.543    0.9480E-21
  54183.611    0.9668E-21
  54183.679    0.9744E-21
  54183.747    0.9781E-21
  54183.816    0.9441E-21
  54183.884    0.9328E-21
  54183.952    0.9440E-21
  54184.020    0.9590E-21
  54184.088    0.9514E-21
  54184.156    0.9288E-21
  54184.224    0.9176E-21
  54184.292    0.9026E-21
  54184.360    0.8988E-21
  54184.428    0.8839E-21
  54184.496    0.8839E-21
  54184.565    0.8802E-21
  54184.633    0.8801E-21
  54184.701    0.8801E-21
  54184.769    0.8949E-21
  54184.837    0.8985E-21
  54184.905    0.8874E-21
  54184.973    0.8762E-21
  54185.041    0.8504E-21
  54185.109    0.8320E-21
  54185.177    0.8429E-21
  54185.245    0.8502E-21
  54185.314    0.8686E-21
  54185.382    0.8833E-21
  54185.450    0.8796E-21
  54185.518    0.8464E-21
  54185.586    0.8280E-21
  54185.654    0.7988E-21
  54185.722    0.7952E-21
  54185.790    0.8206E-21
  54185.858    0.8462E-21
  54185.926    0.8425E-21
  54185.995    0.8314E-21
  54186.063    0.8241E-21
  54186.131    0.8167E-21
  54186.199    0.8130E-21
  54186.267    0.8239E-21
  54186.335    0.8422E-21
  54186.403    0.8385E-21
  54186.471    0.8056E-21
  54186.539    0.7730E-21
  54186.607    0.7406E-21
  54186.676    0.7263E-21
  54186.744    0.7049E-21
  54186.812    0.6731E-21
  54186.880    0.6626E-21
  54186.948    0.6730E-21
  54187.016    0.7261E-21
  54187.084    0.7871E-21
  54187.152    0.8161E-21
  54187.220    0.8343E-21
  54187.289    0.8233E-21
  54187.357    0.7942E-21
  54187.425    0.7509E-21
  54187.493    0.7187E-21
  54187.561    0.6938E-21
  54187.629    0.6973E-21
  54187.697    0.7435E-21
  54187.765    0.7506E-21
  54187.833    0.7434E-21
  54187.901    0.7506E-21
  54187.970    0.7721E-21
  54188.038    0.8010E-21
  54188.106    0.8155E-21
  54188.174    0.8045E-21
  54188.242    0.7827E-21
  54188.310    0.7396E-21
  54188.378    0.6968E-21
  54188.446    0.6546E-21
  54188.514    0.6475E-21
  54188.583    0.6510E-21
  54188.651    0.6335E-21
  54188.719    0.6195E-21
  54188.787    0.6369E-21
  54188.855    0.6403E-21
  54188.923    0.6403E-21
  54188.991    0.6542E-21
  54189.059    0.6788E-21
  54189.128    0.6999E-21
  54189.196    0.7069E-21
  54189.264    0.7105E-21
  54189.332    0.6998E-21
  54189.400    0.6610E-21
  54189.468    0.6365E-21
  54189.536    0.6364E-21
  54189.604    0.6679E-21
  54189.672    0.6960E-21
  54189.741    0.7173E-21
  54189.809    0.7279E-21
  54189.877    0.7030E-21
  54189.945    0.6676E-21
  54190.013    0.6676E-21
  54190.081    0.6641E-21
  54190.149    0.6745E-21
  54190.217    0.6886E-21
  54190.286    0.6850E-21
  54190.354    0.7133E-21
  54190.422    0.7418E-21
  54190.490    0.7132E-21
  54190.558    0.6743E-21
  54190.626    0.6672E-21
  54190.694    0.6707E-21
  54190.762    0.6742E-21
  54190.831    0.6671E-21
  54190.899    0.6460E-21
  54190.967    0.5974E-21
  54191.035    0.5459E-21
  54191.103    0.5255E-21
  54191.171    0.5492E-21
  54191.239    0.5697E-21
  54191.307    0.5937E-21
  54191.376    0.5902E-21
  54191.444    0.5764E-21
  54191.512    0.5936E-21
  54191.580    0.6074E-21
  54191.648    0.6386E-21
  54191.716    0.6877E-21
  54191.784    0.6806E-21
  54191.852    0.6735E-21
  54191.921    0.6699E-21
  54191.989    0.6384E-21
  54192.057    0.6209E-21
  54192.125    0.5966E-21
  54192.193    0.5759E-21
  54192.261    0.5862E-21
  54192.329    0.5759E-21
  54192.397    0.5724E-21
  54192.466    0.6137E-21
  54192.534    0.6345E-21
  54192.602    0.6415E-21
  54192.670    0.6414E-21
  54192.738    0.6032E-21
  54192.806    0.5824E-21
  54192.874    0.5893E-21
  54192.943    0.5996E-21
  54193.011    0.6030E-21
  54193.079    0.5926E-21
  54193.147    0.5616E-21
  54193.215    0.5241E-21
  54193.283    0.5105E-21
  54193.351    0.5274E-21
  54193.419    0.5274E-21
  54193.488    0.5172E-21
  54193.556    0.5070E-21
  54193.624    0.4968E-21
  54193.692    0.5069E-21
  54193.760    0.5408E-21
  54193.828    0.5441E-21
  54193.896    0.5475E-21
  54193.965    0.5372E-21
  54194.033    0.5304E-21
  54194.101    0.5304E-21
  54194.169    0.5269E-21
  54194.237    0.5541E-21
  54194.305    0.5849E-21
  54194.373    0.5780E-21
  54194.442    0.5745E-21
  54194.510    0.5642E-21
  54194.578    0.5403E-21
  54194.646    0.5232E-21
  54194.714    0.5334E-21
  54194.782    0.5265E-21
  54194.850    0.5129E-21
  54194.919    0.5163E-21
  54194.987    0.5332E-21
  54195.055    0.5468E-21
  54195.123    0.5331E-21
  54195.191    0.5195E-21
  54195.259    0.5059E-21
  54195.327    0.4958E-21
  54195.396    0.5160E-21
  54195.464    0.5397E-21
  54195.532    0.5431E-21
  54195.600    0.5738E-21
  54195.668    0.5875E-21
  54195.736    0.6151E-21
  54195.804    0.5943E-21
  54195.873    0.5839E-21
  54195.941    0.5496E-21
  54196.009    0.5088E-21
  54196.077    0.5088E-21
  54196.145    0.4885E-21
  54196.213    0.4818E-21
  54196.282    0.4784E-21
  54196.350    0.4918E-21
  54196.418    0.5289E-21
  54196.486    0.5595E-21
  54196.554    0.5663E-21
  54196.622    0.5424E-21
  54196.690    0.4848E-21
  54196.759    0.4116E-21
  54196.827    0.3754E-21
  54196.895    0.3558E-21
  54196.963    0.3688E-21
  54197.031    0.4147E-21
  54197.099    0.4511E-21
  54197.168    0.4711E-21
  54197.236    0.5047E-21
  54197.304    0.5182E-21
  54197.372    0.4945E-21
  54197.440    0.4676E-21
  54197.508    0.4442E-21
  54197.576    0.4111E-21
  54197.645    0.4077E-21
  54197.713    0.4275E-21
  54197.781    0.4374E-21
  54197.849    0.4407E-21
  54197.917    0.4539E-21
  54197.985    0.4673E-21
  54198.054    0.4605E-21
  54198.122    0.4372E-21
  54198.190    0.4206E-21
  54198.258    0.4008E-21
  54198.326    0.3843E-21
  54198.394    0.3974E-21
  54198.463    0.4270E-21
  54198.531    0.4502E-21
  54198.599    0.4702E-21
  54198.667    0.4937E-21
  54198.735    0.5308E-21
  54198.803    0.5342E-21
  54198.872    0.5206E-21
  54198.940    0.5341E-21
  54199.008    0.5477E-21
  54199.076    0.5408E-21
  54199.144    0.5035E-21
  54199.212    0.4299E-21
  54199.281    0.3674E-21
  54199.349    0.3478E-21
  54199.417    0.3413E-21
  54199.485    0.3607E-21
  54199.553    0.3835E-21
  54199.621    0.4131E-21
  54199.690    0.4395E-21
  54199.758    0.4561E-21
  54199.826    0.4628E-21
  54199.894    0.4560E-21
  54199.962    0.4560E-21
