# 16O2;(6,0);79K;52882-3170 cm-1;4433 pts
#     WNO          SIGMA  
  52882.069    0.1663E-22
  52882.133    0.1661E-22
  52882.198    0.9986E-23
  52882.262    0.7776E-23
  52882.327    0.4114E-23
  52882.392    0.5554E-23
  52882.456    0.1285E-22
  52882.521    0.2094E-22
  52882.585    0.2241E-22
  52882.650    0.2239E-22
  52882.714    0.2238E-22
  52882.779    0.2905E-22
  52882.843    0.3652E-22
  52882.908    0.4102E-22
  52882.973    0.4175E-22
  52883.037    0.3797E-22
  52883.102    0.3420E-22
  52883.166    0.3418E-22
  52883.231    0.2521E-22
  52883.295    0.1706E-22
  52883.360    0.2073E-22
  52883.424    0.2072E-22
  52883.489    0.1627E-22
  52883.554    0.7450E-23
  52883.618    0.1541E-24
  52883.683    0.8634E-24
  52883.747    0.4483E-23
  52883.812    0.1104E-22
  52883.876    0.1543E-22
  52883.941    0.1468E-22
  52884.005    0.1246E-22
  52884.070    0.8050E-23
  52884.135    0.7492E-24
  52884.199   -0.7941E-23
  52884.264   -0.8677E-23
  52884.328   -0.2199E-23
  52884.393    0.5778E-23
  52884.457    0.1529E-22
  52884.522    0.2266E-22
  52884.587    0.2487E-22
  52884.651    0.2337E-22
  52884.716    0.2039E-22
  52884.780    0.2111E-22
  52884.845    0.2480E-22
  52884.909    0.2034E-22
  52884.974    0.1516E-22
  52885.038    0.1588E-22
  52885.103    0.1586E-22
  52885.168    0.1437E-22
  52885.232    0.6295E-23
  52885.297    0.2635E-23
  52885.361    0.8455E-23
  52885.426    0.1357E-22
  52885.490    0.1209E-22
  52885.555    0.1207E-22
  52885.620    0.4738E-23
  52885.684    0.1810E-23
  52885.749   -0.1110E-23
  52885.813   -0.9788E-23
  52885.878   -0.1768E-22
  52885.942   -0.2339E-22
  52886.007   -0.2695E-22
  52886.072   -0.2413E-22
  52886.136   -0.1989E-22
  52886.201   -0.1634E-22
  52886.265   -0.4136E-23
  52886.330    0.4559E-23
  52886.394    0.6001E-23
  52886.459    0.6715E-23
  52886.524    0.1256E-22
  52886.588    0.1622E-22
  52886.653    0.1033E-22
  52886.717    0.5190E-23
  52886.782    0.3716E-23
  52886.846    0.9543E-23
  52886.911    0.1320E-22
  52886.976    0.1244E-22
  52887.040    0.8762E-23
  52887.105    0.6552E-23
  52887.169    0.2889E-23
  52887.234   -0.7601E-24
  52887.298   -0.7764E-24
  52887.363    0.2840E-23
  52887.428    0.8664E-23
  52887.492    0.6454E-23
  52887.557    0.6100E-24
  52887.621   -0.4479E-23
  52887.686   -0.5218E-23
  52887.750   -0.4511E-23
  52887.815   -0.8136E-23
  52887.880   -0.1031E-22
  52887.944   -0.1320E-22
  52888.009   -0.1178E-22
  52888.073   -0.4593E-23
  52888.138   -0.1714E-23
  52888.203   -0.2455E-23
  52888.267   -0.5365E-23
  52888.332   -0.3212E-23
  52888.396    0.6956E-23
  52888.461    0.7671E-23
  52888.525    0.1132E-22
  52888.590    0.1277E-22
  52888.655    0.1202E-22
  52888.719    0.9069E-23
  52888.784    0.3938E-23
  52888.848    0.1010E-23
  52888.913    0.3905E-23
  52888.977    0.1488E-22
  52889.042    0.1855E-22
  52889.107    0.2373E-22
  52889.171    0.2445E-22
  52889.236    0.2221E-22
  52889.300    0.1775E-22
  52889.365    0.6711E-23
  52889.430    0.3046E-23
  52889.494    0.5947E-23
  52889.559    0.1326E-22
  52889.623    0.1619E-22
  52889.688    0.2252E-23
  52889.753   -0.7184E-23
  52889.817   -0.1224E-22
  52889.882   -0.1010E-22
  52889.946   -0.3620E-23
  52890.011    0.2899E-23
  52890.075    0.1166E-22
  52890.140    0.2050E-22
  52890.205    0.2122E-22
  52890.269    0.1088E-22
  52890.334    0.4275E-23
  52890.398    0.7181E-23
  52890.463    0.7896E-23
  52890.528    0.3497E-23
  52890.592   -0.3060E-23
  52890.657   -0.9575E-23
  52890.721   -0.1605E-22
  52890.786   -0.1750E-22
  52890.850   -0.1465E-22
  52890.915   -0.7478E-23
  52890.980    0.6302E-23
  52891.044    0.2027E-22
  52891.109    0.2620E-22
  52891.173    0.2842E-22
  52891.238    0.2691E-22
  52891.303    0.2466E-22
  52891.367    0.2539E-22
  52891.432    0.2091E-22
  52891.496    0.1277E-22
  52891.561    0.1275E-22
  52891.626    0.1053E-22
  52891.690    0.1125E-22
  52891.755    0.1271E-22
  52891.819    0.1195E-22
  52891.884    0.9735E-23
  52891.949    0.1045E-22
  52892.013    0.9702E-23
  52892.078    0.3104E-23
  52892.142    0.1631E-23
  52892.207    0.3072E-23
  52892.272    0.8170E-23
  52892.336    0.1920E-22
  52892.401    0.2661E-22
  52892.465    0.2585E-22
  52892.530    0.1619E-22
  52892.595    0.5893E-23
  52892.659    0.2957E-23
  52892.724    0.5130E-23
  52892.788    0.4383E-23
  52892.853    0.8756E-23
  52892.918    0.9473E-23
  52892.982    0.1019E-22
  52893.047    0.1828E-22
  52893.111    0.2049E-22
  52893.176    0.1751E-22
  52893.241    0.5730E-23
  52893.305   -0.5194E-23
  52893.370   -0.5933E-23
  52893.434    0.5763E-24
  52893.499    0.8593E-23
  52893.564    0.9309E-23
  52893.628    0.1076E-22
  52893.693    0.1222E-22
  52893.757    0.2032E-22
  52893.822    0.3224E-22
  52893.887    0.3824E-22
  52893.951    0.3521E-22
  52894.016    0.2397E-22
  52894.080    0.9912E-23
  52894.145   -0.3308E-24
  52894.210   -0.1800E-23
  52894.274    0.3636E-24
  52894.339    0.1803E-23
  52894.403    0.2515E-23
  52894.468    0.3958E-23
  52894.533    0.6866E-23
  52894.597    0.6849E-23
  52894.662    0.7565E-23
  52894.726    0.1705E-23
  52894.791   -0.3398E-23
  52894.856   -0.2689E-23
  52894.920    0.6767E-23
  52894.985    0.1189E-22
  52895.049    0.1408E-22
  52895.114    0.1480E-22
  52895.179    0.9634E-23
  52895.243    0.5223E-23
  52895.308    0.1034E-22
  52895.372    0.1621E-22
  52895.437    0.1325E-22
  52895.502    0.8819E-23
  52895.566    0.3680E-23
  52895.631   -0.1434E-23
  52895.696   -0.1450E-23
  52895.760   -0.2918E-23
  52895.825   -0.2935E-23
  52895.889    0.2868E-23
  52895.954    0.8704E-23
  52896.019    0.1457E-22
  52896.083    0.2122E-22
  52896.148    0.1307E-22
  52896.212    0.4977E-23
  52896.277    0.5840E-24
  52896.342   -0.1600E-24
  52896.406   -0.3807E-23
  52896.471   -0.5996E-23
  52896.535   -0.1663E-23
  52896.600    0.3418E-23
  52896.665    0.6326E-23
  52896.729    0.8508E-23
  52896.794    0.9225E-23
  52896.859    0.4083E-23
  52896.923   -0.1035E-23
  52896.988   -0.1778E-23
  52897.052    0.1116E-23
  52897.117    0.3287E-23
  52897.182    0.3271E-23
  52897.246    0.1279E-22
  52897.311    0.1425E-22
  52897.376    0.1055E-22
  52897.440    0.3935E-23
  52897.505   -0.4547E-24
  52897.569    0.3172E-23
  52897.634    0.9012E-23
  52897.699    0.1415E-22
  52897.763    0.1266E-22
  52897.828    0.1264E-22
  52897.892    0.1115E-22
  52897.957    0.1556E-22
  52898.022    0.2073E-22
  52898.086    0.1997E-22
  52898.151    0.2516E-22
  52898.216    0.2589E-22
  52898.280    0.1844E-22
  52898.345    0.1030E-22
  52898.409    0.4367E-25
  52898.474   -0.3606E-23
  52898.539   -0.7966E-23
  52898.603   -0.1159E-22
  52898.668   -0.1520E-22
  52898.733   -0.1450E-22
  52898.797   -0.9475E-23
  52898.862    0.2845E-23
  52898.926    0.1457E-22
  52898.991    0.2569E-22
  52899.056    0.2941E-22
  52899.120    0.2566E-22
  52899.185    0.1230E-22
  52899.250    0.5589E-24
  52899.314   -0.4544E-23
  52899.379   -0.5285E-23
  52899.443   -0.5301E-23
  52899.508   -0.3142E-23
  52899.573   -0.1706E-23
  52899.637    0.5572E-23
  52899.702    0.1586E-22
  52899.767    0.2699E-22
  52899.831    0.2772E-22
  52899.896    0.2472E-22
  52899.960    0.2247E-22
  52900.025    0.2245E-22
  52900.090    0.2318E-22
  52900.154    0.1796E-22
  52900.219    0.1277E-22
  52900.284    0.6873E-23
  52900.348    0.6857E-23
  52900.413    0.8308E-23
  52900.477    0.9026E-23
  52900.542    0.8275E-23
  52900.607    0.6059E-23
  52900.671    0.2386E-23
  52900.736    0.3100E-23
  52900.801    0.9679E-23
  52900.865    0.1556E-22
  52900.930    0.1999E-22
  52900.995    0.1997E-22
  52901.059    0.2219E-22
  52901.124    0.2739E-22
  52901.188    0.2588E-22
  52901.253    0.1620E-22
  52901.318    0.9548E-23
  52901.382    0.5130E-23
  52901.447    0.9515E-23
  52901.512    0.1688E-22
  52901.576    0.2131E-22
  52901.641    0.1833E-22
  52901.706    0.1461E-22
  52901.770    0.1017E-22
  52901.835    0.9417E-23
  52901.899    0.1234E-22
  52901.964    0.2047E-22
  52902.029    0.2269E-22
  52902.093    0.1599E-22
  52902.158    0.9335E-23
  52902.223    0.3454E-23
  52902.287    0.1247E-23
  52902.352    0.1230E-23
  52902.417    0.5600E-23
  52902.481    0.1220E-22
  52902.546    0.1513E-22
  52902.610    0.9955E-23
  52902.675    0.8469E-23
  52902.740    0.9922E-23
  52902.804    0.1655E-22
  52902.869    0.2024E-22
  52902.934    0.2171E-22
  52902.998    0.2021E-22
  52903.063    0.1574E-22
  52903.128    0.1795E-22
  52903.192    0.1645E-22
  52903.257    0.1200E-22
  52903.322    0.1864E-22
  52903.386    0.2383E-22
  52903.451    0.2381E-22
  52903.515    0.1933E-22
  52903.580    0.2006E-22
  52903.645    0.1634E-22
  52903.709    0.1115E-22
  52903.774    0.1482E-22
  52903.839    0.1777E-22
  52903.903    0.2295E-22
  52903.968    0.3568E-22
  52904.033    0.4096E-22
  52904.097    0.3565E-22
  52904.162    0.2812E-22
  52904.227    0.1619E-22
  52904.291    0.1543E-22
  52904.356    0.1986E-22
  52904.420    0.2506E-22
  52904.485    0.3104E-22
  52904.550    0.3102E-22
  52904.614    0.2875E-22
  52904.679    0.2649E-22
  52904.744    0.2125E-22
  52904.808    0.1604E-22
  52904.873    0.2048E-22
  52904.938    0.2568E-22
  52905.002    0.2940E-22
  52905.067    0.3014E-22
  52905.132    0.1744E-22
  52905.196    0.7829E-23
  52905.261    0.7078E-23
  52905.326    0.8531E-23
  52905.390    0.1293E-22
  52905.455    0.2107E-22
  52905.520    0.2478E-22
  52905.584    0.2626E-22
  52905.649    0.2177E-22
  52905.714    0.1878E-22
  52905.778    0.1284E-22
  52905.843    0.2535E-23
  52905.907   -0.6941E-23
  52905.972   -0.7681E-23
  52906.037   -0.4338E-24
  52906.101    0.5398E-23
  52906.166    0.4649E-23
  52906.231    0.3900E-23
  52906.295    0.4616E-23
  52906.360    0.1343E-22
  52906.425    0.2605E-22
  52906.489    0.3278E-22
  52906.554    0.3277E-22
  52906.619    0.3350E-22
  52906.683    0.3198E-22
  52906.748    0.2971E-22
  52906.813    0.3045E-22
  52906.877    0.2743E-22
  52906.942    0.2517E-22
  52907.007    0.2291E-22
  52907.071    0.1992E-22
  52907.136    0.1397E-22
  52907.201    0.1026E-22
  52907.265    0.1172E-22
  52907.330    0.9494E-23
  52907.395    0.1538E-22
  52907.459    0.2280E-22
  52907.524    0.2204E-22
  52907.589    0.2351E-22
  52907.653    0.2275E-22
  52907.718    0.2199E-22
  52907.783    0.1677E-22
  52907.847    0.1231E-22
  52907.912    0.1082E-22
  52907.977    0.8594E-23
  52908.041    0.1522E-22
  52908.106    0.2413E-22
  52908.171    0.3010E-22
  52908.235    0.3008E-22
  52908.300    0.2857E-22
  52908.365    0.2331E-22
  52908.429    0.2255E-22
  52908.494    0.2627E-22
  52908.559    0.2700E-22
  52908.623    0.2848E-22
  52908.688    0.3298E-22
  52908.753    0.3976E-22
  52908.817    0.4355E-22
  52908.882    0.4963E-22
  52908.947    0.4656E-22
  52909.011    0.3667E-22
  52909.076    0.2612E-22
  52909.141    0.1716E-22
  52909.205    0.1197E-22
  52909.270    0.4593E-23
  52909.335    0.2380E-23
  52909.399    0.3096E-23
  52909.464    0.6746E-23
  52909.529    0.9672E-23
  52909.593    0.9656E-23
  52909.658    0.7431E-23
  52909.723    0.3746E-23
  52909.787    0.4462E-23
  52909.852    0.8117E-23
  52909.917    0.1326E-22
  52909.981    0.2067E-22
  52910.046    0.2438E-22
  52910.111    0.2212E-22
  52910.175    0.2062E-22
  52910.240    0.1614E-22
  52910.305    0.1021E-22
  52910.369    0.7986E-23
  52910.434    0.1018E-22
  52910.499    0.1164E-22
  52910.563    0.1532E-22
  52910.628    0.1382E-22
  52910.693    0.1381E-22
  52910.757    0.1010E-22
  52910.822    0.2002E-23
  52910.887    0.1255E-23
  52910.951    0.2701E-23
  52911.016    0.4883E-23
  52911.081    0.8541E-23
  52911.145    0.1443E-22
  52911.210    0.2483E-22
  52911.275    0.2482E-22
  52911.339    0.2330E-22
  52911.404    0.2478E-22
  52911.469    0.3605E-22
  52911.533    0.4057E-22
  52911.598    0.3299E-22
  52911.663    0.2997E-22
  52911.727    0.2022E-22
  52911.792    0.1427E-22
  52911.857    0.1573E-22
  52911.921    0.1202E-22
  52911.986    0.9048E-23
  52912.051    0.9031E-23
  52912.116    0.1197E-22
  52912.180    0.1491E-22
  52912.245    0.1193E-22
  52912.310    0.4555E-23
  52912.374    0.3805E-23
  52912.439   -0.3516E-23
  52912.504   -0.1347E-23
  52912.568    0.2291E-23
  52912.633    0.6676E-23
  52912.698    0.1404E-22
  52912.762    0.1699E-22
  52912.827    0.1994E-22
  52912.892    0.2291E-22
  52912.956    0.2364E-22
  52913.021    0.1989E-22
  52913.086    0.1765E-22
  52913.150    0.2284E-22
  52913.215    0.2732E-22
  52913.280    0.2805E-22
  52913.345    0.2354E-22
  52913.409    0.1831E-22
  52913.474    0.1236E-22
  52913.539    0.7181E-23
  52913.603    0.1233E-22
  52913.668    0.1750E-22
  52913.733    0.2569E-22
  52913.797    0.2717E-22
  52913.862    0.2941E-22
  52913.927    0.2939E-22
  52913.991    0.2338E-22
  52914.056    0.2261E-22
  52914.121    0.1962E-22
  52914.185    0.1440E-22
  52914.250    0.1216E-22
  52914.315    0.1808E-22
  52914.380    0.2029E-22
  52914.444    0.2028E-22
  52914.509    0.1729E-22
  52914.574    0.1653E-22
  52914.638    0.2097E-22
  52914.703    0.2619E-22
  52914.768    0.3445E-22
  52914.832    0.3595E-22
  52914.897    0.3215E-22
  52914.962    0.2687E-22
  52915.026    0.2536E-22
  52915.091    0.2909E-22
  52915.156    0.2533E-22
  52915.221    0.1636E-22
  52915.285    0.1264E-22
  52915.350    0.1262E-22
  52915.415    0.1261E-22
  52915.479    0.1853E-22
  52915.544    0.2523E-22
  52915.609    0.3047E-22
  52915.673    0.2970E-22
  52915.738    0.2893E-22
  52915.803    0.2441E-22
  52915.867    0.2739E-22
  52915.932    0.3189E-22
  52915.997    0.2962E-22
  52916.062    0.2435E-22
  52916.126    0.2209E-22
  52916.191    0.2357E-22
  52916.256    0.2056E-22
  52916.320    0.1831E-22
  52916.385    0.2277E-22
  52916.450    0.2350E-22
  52916.514    0.2498E-22
  52916.579    0.2872E-22
  52916.644    0.2420E-22
  52916.709    0.1302E-22
  52916.773    0.6359E-23
  52916.838    0.1205E-23
  52916.903    0.3387E-23
  52916.967    0.1295E-22
  52917.032    0.2260E-22
  52917.097    0.3009E-22
  52917.161    0.2782E-22
  52917.226    0.2930E-22
  52917.291    0.3004E-22
  52917.356    0.2852E-22
  52917.420    0.3227E-22
  52917.485    0.3452E-22
  52917.550    0.3073E-22
  52917.614    0.3524E-22
  52917.679    0.3447E-22
  52917.744    0.2767E-22
  52917.808    0.2017E-22
  52917.873    0.1494E-22
  52917.938    0.1270E-22
  52918.003    0.1195E-22
  52918.067    0.1119E-22
  52918.132    0.1860E-22
  52918.197    0.2906E-22
  52918.261    0.3130E-22
  52918.326    0.2752E-22
  52918.391    0.2376E-22
  52918.456    0.1480E-22
  52918.520    0.8861E-23
  52918.585    0.8845E-23
  52918.650    0.1178E-22
  52918.714    0.1547E-22
  52918.779    0.1620E-22
  52918.844    0.1916E-22
  52918.909    0.2362E-22
  52918.973    0.2961E-22
  52919.038    0.3563E-22
  52919.103    0.4017E-22
  52919.167    0.3484E-22
  52919.232    0.2804E-22
  52919.297    0.2878E-22
  52919.361    0.3177E-22
  52919.426    0.3327E-22
  52919.491    0.4159E-22
  52919.556    0.4234E-22
  52919.620    0.3928E-22
  52919.685    0.3547E-22
  52919.750    0.3621E-22
  52919.814    0.3544E-22
  52919.879    0.3466E-22
  52919.944    0.3465E-22
  52920.009    0.3690E-22
  52920.073    0.4450E-22
  52920.138    0.4984E-22
  52920.203    0.5059E-22
  52920.267    0.4598E-22
  52920.332    0.3910E-22
  52920.397    0.3378E-22
  52920.462    0.3149E-22
  52920.526    0.2471E-22
  52920.591    0.1723E-22
  52920.656    0.1275E-22
  52920.720    0.1422E-22
  52920.785    0.1867E-22
  52920.850    0.2463E-22
  52920.915    0.2761E-22
  52920.979    0.2459E-22
  52921.044    0.1934E-22
  52921.109    0.2007E-22
  52921.173    0.3282E-22
  52921.238    0.4649E-22
  52921.303    0.5339E-22
  52921.368    0.5337E-22
  52921.432    0.4339E-22
  52921.497    0.4032E-22
  52921.562    0.3727E-22
  52921.627    0.3346E-22
  52921.691    0.3043E-22
  52921.756    0.2740E-22
  52921.821    0.2588E-22
  52921.885    0.2737E-22
  52921.950    0.3869E-22
  52922.015    0.5167E-22
  52922.080    0.5705E-22
  52922.144    0.5858E-22
  52922.209    0.5470E-22
  52922.274    0.5160E-22
  52922.338    0.5621E-22
  52922.403    0.5697E-22
  52922.468    0.5541E-22
  52922.533    0.5231E-22
  52922.597    0.4691E-22
  52922.662    0.4766E-22
  52922.727    0.4459E-22
  52922.792    0.4304E-22
  52922.856    0.4379E-22
  52922.921    0.4836E-22
  52922.986    0.5605E-22
  52923.050    0.6301E-22
  52923.115    0.6377E-22
  52923.180    0.6454E-22
  52923.245    0.6296E-22
  52923.309    0.5906E-22
  52923.374    0.5209E-22
  52923.439    0.5285E-22
  52923.504    0.5592E-22
  52923.568    0.5204E-22
  52923.633    0.4588E-22
  52923.698    0.4663E-22
  52923.762    0.4892E-22
  52923.827    0.4967E-22
  52923.892    0.5737E-22
  52923.957    0.6200E-22
  52924.021    0.5656E-22
  52924.086    0.4730E-22
  52924.151    0.4346E-22
  52924.216    0.4880E-22
  52924.280    0.4879E-22
  52924.345    0.4954E-22
  52924.410    0.5029E-22
  52924.475    0.5490E-22
  52924.539    0.5565E-22
  52924.604    0.5486E-22
  52924.669    0.5639E-22
  52924.733    0.5021E-22
  52924.798    0.4789E-22
  52924.863    0.5634E-22
  52924.928    0.7113E-22
  52924.992    0.8136E-22
  52925.057    0.8055E-22
  52925.122    0.8054E-22
  52925.187    0.7973E-22
  52925.251    0.8130E-22
  52925.316    0.8923E-22
  52925.381    0.9482E-22
  52925.446    0.1029E-21
  52925.510    0.1085E-21
  52925.575    0.1036E-21
  52925.640    0.1036E-21
  52925.705    0.1004E-21
  52925.769    0.9232E-22
  52925.834    0.8591E-22
  52925.899    0.8351E-22
  52925.963    0.8350E-22
  52926.028    0.8746E-22
  52926.093    0.9464E-22
  52926.158    0.9945E-22
  52926.222    0.1035E-21
  52926.287    0.1140E-21
  52926.352    0.1231E-21
  52926.417    0.1297E-21
  52926.481    0.1272E-21
  52926.546    0.1214E-21
  52926.611    0.1197E-21
  52926.676    0.1263E-21
  52926.740    0.1362E-21
  52926.805    0.1455E-21
  52926.870    0.1505E-21
  52926.935    0.1530E-21
  52926.999    0.1564E-21
  52927.064    0.1615E-21
  52927.129    0.1745E-21
  52927.194    0.1814E-21
  52927.258    0.1770E-21
  52927.323    0.1727E-21
  52927.388    0.1822E-21
  52927.453    0.1945E-21
  52927.517    0.2123E-21
  52927.582    0.2323E-21
  52927.647    0.2480E-21
  52927.712    0.2620E-21
  52927.776    0.2772E-21
  52927.841    0.2965E-21
  52927.906    0.3162E-21
  52927.971    0.3353E-21
  52928.035    0.3547E-21
  52928.100    0.3829E-21
  52928.165    0.4152E-21
  52928.230    0.4485E-21
  52928.294    0.4806E-21
  52928.359    0.5089E-21
  52928.424    0.5307E-21
  52928.489    0.5542E-21
  52928.553    0.5756E-21
  52928.618    0.5911E-21
  52928.683    0.6307E-21
  52928.748    0.6719E-21
  52928.812    0.6974E-21
  52928.877    0.7162E-21
  52928.942    0.7264E-21
  52929.007    0.7279E-21
  52929.071    0.7309E-21
  52929.136    0.7279E-21
  52929.201    0.7161E-21
  52929.266    0.6972E-21
  52929.330    0.6787E-21
  52929.395    0.6495E-21
  52929.460    0.6198E-21
  52929.525    0.5973E-21
  52929.589    0.5652E-21
  52929.654    0.5316E-21
  52929.719    0.5038E-21
  52929.784    0.4767E-21
  52929.848    0.4549E-21
  52929.913    0.4391E-21
  52929.978    0.4180E-21
  52930.043    0.3888E-21
  52930.107    0.3604E-21
  52930.172    0.3398E-21
  52930.237    0.3276E-21
  52930.302    0.3186E-21
  52930.366    0.3067E-21
  52930.431    0.2900E-21
  52930.496    0.2727E-21
  52930.561    0.2500E-21
  52930.625    0.2370E-21
  52930.690    0.2288E-21
  52930.755    0.2187E-21
  52930.820    0.2097E-21
  52930.884    0.2025E-21
  52930.949    0.1936E-21
  52931.014    0.1883E-21
  52931.079    0.1822E-21
  52931.143    0.1778E-21
  52931.208    0.1691E-21
  52931.273    0.1545E-21
  52931.338    0.1443E-21
  52931.403    0.1376E-21
  52931.467    0.1292E-21
  52931.532    0.1259E-21
  52931.597    0.1308E-21
  52931.662    0.1283E-21
  52931.726    0.1200E-21
  52931.791    0.1233E-21
  52931.856    0.1217E-21
  52931.921    0.1192E-21
  52931.985    0.1110E-21
  52932.050    0.1052E-21
  52932.115    0.1012E-21
  52932.180    0.9309E-22
  52932.244    0.8587E-22
  52932.309    0.8347E-22
  52932.374    0.7948E-22
  52932.439    0.7393E-22
  52932.504    0.7313E-22
  52932.568    0.8022E-22
  52932.633    0.8897E-22
  52932.698    0.9859E-22
  52932.763    0.9616E-22
  52932.827    0.9292E-22
  52932.892    0.9451E-22
  52932.957    0.8649E-22
  52933.022    0.7300E-22
  52933.086    0.6357E-22
  52933.151    0.6122E-22
  52933.216    0.6042E-22
  52933.281    0.5420E-22
  52933.346    0.5341E-22
  52933.410    0.6427E-22
  52933.475    0.7052E-22
  52933.540    0.7050E-22
  52933.605    0.7127E-22
  52933.669    0.6264E-22
  52933.734    0.5408E-22
  52933.799    0.5484E-22
  52933.864    0.5250E-22
  52933.928    0.5403E-22
  52933.993    0.5093E-22
  52934.058    0.4246E-22
  52934.123    0.4015E-22
  52934.188    0.3937E-22
  52934.252    0.4241E-22
  52934.317    0.4469E-22
  52934.382    0.5006E-22
  52934.447    0.5700E-22
  52934.511    0.6087E-22
  52934.576    0.5930E-22
  52934.641    0.6084E-22
  52934.706    0.6238E-22
  52934.771    0.6003E-22
  52934.835    0.6157E-22
  52934.900    0.6155E-22
  52934.965    0.6309E-22
  52935.030    0.6308E-22
  52935.094    0.5606E-22
  52935.159    0.4601E-22
  52935.224    0.4140E-22
  52935.289    0.3986E-22
  52935.354    0.4290E-22
  52935.418    0.4595E-22
  52935.483    0.4286E-22
  52935.548    0.3979E-22
  52935.613    0.3825E-22
  52935.677    0.3215E-22
  52935.742    0.1933E-22
  52935.807    0.1857E-22
  52935.872    0.2832E-22
  52935.937    0.4045E-22
  52936.001    0.4580E-22
  52936.066    0.4425E-22
  52936.131    0.4423E-22
  52936.196    0.3734E-22
  52936.261    0.3808E-22
  52936.325    0.4265E-22
  52936.390    0.5032E-22
  52936.455    0.5107E-22
  52936.520    0.5105E-22
  52936.584    0.5336E-22
  52936.649    0.5877E-22
  52936.714    0.6109E-22
  52936.779    0.6419E-22
  52936.844    0.6261E-22
  52936.908    0.5405E-22
  52936.973    0.5326E-22
  52937.038    0.5634E-22
  52937.103    0.5245E-22
  52937.168    0.5089E-22
  52937.232    0.4548E-22
  52937.297    0.4011E-22
  52937.362    0.3552E-22
  52937.427    0.3171E-22
  52937.491    0.2791E-22
  52937.556    0.2488E-22
  52937.621    0.2939E-22
  52937.686    0.2710E-22
  52937.751    0.3011E-22
  52937.815    0.3388E-22
  52937.880    0.3539E-22
  52937.945    0.3613E-22
  52938.010    0.4145E-22
  52938.075    0.4758E-22
  52938.139    0.4833E-22
  52938.204    0.4447E-22
  52938.269    0.4062E-22
  52938.334    0.3679E-22
  52938.399    0.3070E-22
  52938.463    0.3524E-22
  52938.528    0.4056E-22
  52938.593    0.3749E-22
  52938.658    0.3595E-22
  52938.722    0.3517E-22
  52938.787    0.3592E-22
  52938.852    0.3742E-22
  52938.917    0.4046E-22
  52938.982    0.4811E-22
  52939.046    0.5118E-22
  52939.111    0.5659E-22
  52939.176    0.5890E-22
  52939.241    0.6278E-22
  52939.306    0.6511E-22
  52939.370    0.6431E-22
  52939.435    0.5418E-22
  52939.500    0.4875E-22
  52939.565    0.4259E-22
  52939.630    0.3875E-22
  52939.694    0.4256E-22
  52939.759    0.4715E-22
  52939.824    0.4790E-22
  52939.889    0.5561E-22
  52939.954    0.5792E-22
  52940.018    0.5869E-22
  52940.083    0.5867E-22
  52940.148    0.4474E-22
  52940.213    0.3860E-22
  52940.278    0.3630E-22
  52940.342    0.3628E-22
  52940.407    0.3855E-22
  52940.472    0.4083E-22
  52940.537    0.4387E-22
  52940.602    0.5001E-22
  52940.666    0.5386E-22
  52940.731    0.5075E-22
  52940.796    0.4381E-22
  52940.861    0.3843E-22
  52940.926    0.4377E-22
  52940.990    0.4606E-22
  52941.055    0.4528E-22
  52941.120    0.4603E-22
  52941.185    0.4909E-22
  52941.250    0.5526E-22
  52941.314    0.5680E-22
  52941.379    0.5756E-22
  52941.444    0.5444E-22
  52941.509    0.5520E-22
  52941.574    0.5518E-22
  52941.638    0.4975E-22
  52941.703    0.4281E-22
  52941.768    0.3515E-22
  52941.833    0.2907E-22
  52941.898    0.2754E-22
  52941.962    0.2752E-22
  52942.027    0.2449E-22
  52942.092    0.2146E-22
  52942.157    0.1920E-22
  52942.222    0.2143E-22
  52942.287    0.3198E-22
  52942.351    0.3958E-22
  52942.416    0.4339E-22
  52942.481    0.4799E-22
  52942.546    0.4874E-22
  52942.611    0.4796E-22
  52942.675    0.5257E-22
  52942.740    0.5333E-22
  52942.805    0.4406E-22
  52942.870    0.3487E-22
  52942.935    0.3638E-22
  52942.999    0.4324E-22
  52943.064    0.4861E-22
  52943.129    0.4628E-22
  52943.194    0.4166E-22
  52943.259    0.4011E-22
  52943.324    0.3020E-22
  52943.388    0.2565E-22
  52943.453    0.2337E-22
  52943.518    0.2939E-22
  52943.583    0.3698E-22
  52943.648    0.4231E-22
  52943.712    0.4076E-22
  52943.777    0.3312E-22
  52943.842    0.3158E-22
  52943.907    0.3233E-22
  52943.972    0.3307E-22
  52944.036    0.3610E-22
  52944.101    0.4373E-22
  52944.166    0.5142E-22
  52944.231    0.5450E-22
  52944.296    0.5216E-22
  52944.361    0.4674E-22
  52944.425    0.3905E-22
  52944.490    0.3370E-22
  52944.555    0.3216E-22
  52944.620    0.3063E-22
  52944.685    0.3137E-22
  52944.749    0.3439E-22
  52944.814    0.2982E-22
  52944.879    0.2376E-22
  52944.944    0.1624E-22
  52945.009    0.1323E-22
  52945.074    0.1695E-22
  52945.138    0.2294E-22
  52945.203    0.2669E-22
  52945.268    0.3655E-22
  52945.333    0.4726E-22
  52945.398    0.4956E-22
  52945.463    0.5264E-22
  52945.527    0.6196E-22
  52945.592    0.6586E-22
  52945.657    0.6506E-22
  52945.722    0.6191E-22
  52945.787    0.5643E-22
  52945.851    0.4175E-22
  52945.916    0.2954E-22
  52945.981    0.2499E-22
  52946.046    0.2120E-22
  52946.111    0.2646E-22
  52946.176    0.3251E-22
  52946.240    0.3553E-22
  52946.305    0.3628E-22
  52946.370    0.3322E-22
  52946.435    0.3777E-22
  52946.500    0.4312E-22
  52946.565    0.4849E-22
  52946.629    0.5855E-22
  52946.694    0.6244E-22
  52946.759    0.6086E-22
  52946.824    0.5617E-22
  52946.889    0.5150E-22
  52946.953    0.5071E-22
  52947.018    0.5457E-22
  52947.083    0.5610E-22
  52947.148    0.4911E-22
  52947.213    0.4601E-22
  52947.278    0.4908E-22
  52947.342    0.5526E-22
  52947.407    0.5291E-22
  52947.472    0.5135E-22
  52947.537    0.4901E-22
  52947.602    0.3900E-22
  52947.667    0.3289E-22
  52947.731    0.2756E-22
  52947.796    0.2679E-22
  52947.861    0.2904E-22
  52947.926    0.3282E-22
  52947.991    0.3509E-22
  52948.056    0.3812E-22
  52948.120    0.4117E-22
  52948.185    0.3885E-22
  52948.250    0.3655E-22
  52948.315    0.3577E-22
  52948.380    0.2815E-22
  52948.445    0.2436E-22
  52948.509    0.2208E-22
  52948.574    0.2583E-22
  52948.639    0.3036E-22
  52948.704    0.2354E-22
  52948.769    0.2126E-22
  52948.834    0.2803E-22
  52948.898    0.3105E-22
  52948.963    0.3484E-22
  52949.028    0.3558E-22
  52949.093    0.2570E-22
  52949.158    0.2493E-22
  52949.223    0.3173E-22
  52949.288    0.3628E-22
  52949.352    0.3703E-22
  52949.417    0.4468E-22
  52949.482    0.4543E-22
  52949.547    0.3164E-22
  52949.612    0.2330E-22
  52949.677    0.1952E-22
  52949.741    0.1876E-22
  52949.806    0.2552E-22
  52949.871    0.3384E-22
  52949.936    0.3688E-22
  52950.001    0.3992E-22
  52950.066    0.4067E-22
  52950.130    0.4065E-22
  52950.195    0.3911E-22
  52950.260    0.3832E-22
  52950.325    0.4214E-22
  52950.390    0.4751E-22
  52950.455    0.4672E-22
  52950.519    0.4594E-22
  52950.584    0.4746E-22
  52950.649    0.4744E-22
  52950.714    0.4435E-22
  52950.779    0.4126E-22
  52950.844    0.4201E-22
  52950.909    0.3510E-22
  52950.973    0.2673E-22
  52951.038    0.2369E-22
  52951.103    0.2897E-22
  52951.168    0.3504E-22
  52951.233    0.3578E-22
  52951.298    0.4343E-22
  52951.362    0.4649E-22
  52951.427    0.4109E-22
  52951.492    0.4415E-22
  52951.557    0.4106E-22
  52951.622    0.4027E-22
  52951.687    0.4950E-22
  52951.752    0.5336E-22
  52951.816    0.5567E-22
  52951.881    0.5721E-22
  52951.946    0.5642E-22
  52952.011    0.6030E-22
  52952.076    0.5950E-22
  52952.141    0.5870E-22
  52952.206    0.6417E-22
  52952.270    0.6572E-22
  52952.335    0.6022E-22
  52952.400    0.5164E-22
  52952.465    0.4852E-22
  52952.530    0.4234E-22
  52952.595    0.3696E-22
  52952.659    0.2933E-22
  52952.724    0.3235E-22
  52952.789    0.3768E-22
  52952.854    0.3690E-22
  52952.919    0.3841E-22
  52952.984    0.3610E-22
  52953.049    0.4298E-22
  52953.113    0.5378E-22
  52953.178    0.5532E-22
  52953.243    0.5686E-22
  52953.308    0.6232E-22
  52953.373    0.6701E-22
  52953.438    0.6150E-22
  52953.503    0.5524E-22
  52953.567    0.5056E-22
  52953.632    0.4668E-22
  52953.697    0.4358E-22
  52953.762    0.4203E-22
  52953.827    0.3818E-22
  52953.892    0.3893E-22
  52953.957    0.4737E-22
  52954.021    0.4967E-22
  52954.086    0.4811E-22
  52954.151    0.4578E-22
  52954.216    0.4191E-22
  52954.281    0.3272E-22
  52954.346    0.2662E-22
  52954.411    0.3268E-22
  52954.475    0.4108E-22
  52954.540    0.5187E-22
  52954.605    0.5807E-22
  52954.670    0.6275E-22
  52954.735    0.6038E-22
  52954.800    0.5335E-22
  52954.865    0.5256E-22
  52954.930    0.5955E-22
  52954.994    0.6896E-22
  52955.059    0.7289E-22
  52955.124    0.7209E-22
  52955.189    0.6733E-22
  52955.254    0.6025E-22
  52955.319    0.6180E-22
  52955.384    0.6571E-22
  52955.448    0.6648E-22
  52955.513    0.6646E-22
  52955.578    0.6802E-22
  52955.643    0.7354E-22
  52955.708    0.7749E-22
  52955.773    0.7430E-22
  52955.838    0.7666E-22
  52955.902    0.8783E-22
  52955.967    0.9265E-22
  52956.032    0.8941E-22
  52956.097    0.8537E-22
  52956.162    0.8456E-22
  52956.227    0.7815E-22
  52956.292    0.7575E-22
  52956.357    0.7573E-22
  52956.421    0.7890E-22
  52956.486    0.7968E-22
  52956.551    0.8126E-22
  52956.616    0.7965E-22
  52956.681    0.6695E-22
  52956.746    0.6222E-22
  52956.811    0.6377E-22
  52956.876    0.6140E-22
  52956.940    0.5904E-22
  52957.005    0.5668E-22
  52957.070    0.5588E-22
  52957.135    0.5275E-22
  52957.200    0.5196E-22
  52957.265    0.4962E-22
  52957.330    0.4728E-22
  52957.394    0.4649E-22
  52957.459    0.5112E-22
  52957.524    0.5265E-22
  52957.589    0.4953E-22
  52957.654    0.4952E-22
  52957.719    0.5260E-22
  52957.784    0.5648E-22
  52957.849    0.5881E-22
  52957.913    0.6192E-22
  52957.978    0.6269E-22
  52958.043    0.6267E-22
  52958.108    0.6501E-22
  52958.173    0.6421E-22
  52958.238    0.7050E-22
  52958.303    0.7762E-22
  52958.368    0.7999E-22
  52958.432    0.7441E-22
  52958.497    0.7677E-22
  52958.562    0.7994E-22
  52958.627    0.7674E-22
  52958.692    0.7513E-22
  52958.757    0.7036E-22
  52958.822    0.6956E-22
  52958.887    0.6403E-22
  52958.952    0.5618E-22
  52959.016    0.4762E-22
  52959.081    0.4220E-22
  52959.146    0.4450E-22
  52959.211    0.4757E-22
  52959.276    0.5065E-22
  52959.341    0.5999E-22
  52959.406    0.6783E-22
  52959.471    0.7256E-22
  52959.535    0.7651E-22
  52959.600    0.7808E-22
  52959.665    0.7409E-22
  52959.730    0.7487E-22
  52959.795    0.7644E-22
  52959.860    0.8361E-22
  52959.925    0.9002E-22
  52959.990    0.9000E-22
  52960.055    0.7797E-22
  52960.119    0.6607E-22
  52960.184    0.5431E-22
  52960.249    0.4963E-22
  52960.314    0.4806E-22
  52960.379    0.4341E-22
  52960.444    0.4880E-22
  52960.509    0.5891E-22
  52960.574    0.6359E-22
  52960.638    0.6672E-22
  52960.703    0.6513E-22
  52960.768    0.6119E-22
  52960.833    0.6117E-22
  52960.898    0.6824E-22
  52960.963    0.7694E-22
  52961.028    0.8491E-22
  52961.093    0.9538E-22
  52961.158    0.1002E-21
  52961.222    0.1018E-21
  52961.287    0.9776E-22
  52961.352    0.8804E-22
  52961.417    0.7603E-22
  52961.482    0.6967E-22
  52961.547    0.7202E-22
  52961.612    0.7996E-22
  52961.677    0.8154E-22
  52961.742    0.7993E-22
  52961.806    0.8712E-22
  52961.871    0.9356E-22
  52961.936    0.9597E-22
  52962.001    0.9677E-22
  52962.066    0.9675E-22
  52962.131    0.1008E-21
  52962.196    0.1024E-21
  52962.261    0.1040E-21
  52962.326    0.9993E-22
  52962.391    0.8939E-22
  52962.455    0.8294E-22
  52962.520    0.7654E-22
  52962.585    0.7334E-22
  52962.650    0.7412E-22
  52962.715    0.7252E-22
  52962.780    0.7171E-22
  52962.845    0.7964E-22
  52962.910    0.7883E-22
  52962.975    0.7642E-22
  52963.039    0.7243E-22
  52963.104    0.6688E-22
  52963.169    0.6214E-22
  52963.234    0.6056E-22
  52963.299    0.6525E-22
  52963.364    0.7235E-22
  52963.429    0.8029E-22
  52963.494    0.7868E-22
  52963.559    0.7787E-22
  52963.624    0.8505E-22
  52963.688    0.8986E-22
  52963.753    0.9227E-22
  52963.818    0.8902E-22
  52963.883    0.8659E-22
  52963.948    0.8899E-22
  52964.013    0.8897E-22
  52964.078    0.8253E-22
  52964.143    0.7931E-22
  52964.208    0.8249E-22
  52964.273    0.9052E-22
  52964.337    0.9374E-22
  52964.402    0.9534E-22
  52964.467    0.9370E-22
  52964.532    0.9369E-22
  52964.597    0.9286E-22
  52964.662    0.9042E-22
  52964.727    0.8637E-22
  52964.792    0.8877E-22
  52964.857    0.9929E-22
  52964.922    0.1083E-21
  52964.987    0.1074E-21
  52965.051    0.1058E-21
  52965.116    0.1049E-21
  52965.181    0.1074E-21
  52965.246    0.1090E-21
  52965.311    0.1090E-21
  52965.376    0.1032E-21
  52965.441    0.1016E-21
  52965.506    0.1048E-21
  52965.571    0.1056E-21
  52965.636    0.1097E-21
  52965.700    0.1130E-21
  52965.765    0.1163E-21
  52965.830    0.1196E-21
  52965.895    0.1154E-21
  52965.960    0.1146E-21
  52966.025    0.1088E-21
  52966.090    0.1063E-21
  52966.155    0.1088E-21
  52966.220    0.1063E-21
  52966.285    0.1071E-21
  52966.350    0.1120E-21
  52966.415    0.1054E-21
  52966.479    0.9481E-22
  52966.544    0.9317E-22
  52966.609    0.9965E-22
  52966.674    0.1095E-21
  52966.739    0.1119E-21
  52966.804    0.1111E-21
  52966.869    0.1102E-21
  52966.934    0.1086E-21
  52966.999    0.1102E-21
  52967.064    0.1102E-21
  52967.129    0.1176E-21
  52967.193    0.1234E-21
  52967.258    0.1267E-21
  52967.323    0.1301E-21
  52967.388    0.1326E-21
  52967.453    0.1342E-21
  52967.518    0.1283E-21
  52967.583    0.1258E-21
  52967.648    0.1308E-21
  52967.713    0.1316E-21
  52967.778    0.1341E-21
  52967.843    0.1375E-21
  52967.908    0.1443E-21
  52967.972    0.1477E-21
  52968.037    0.1511E-21
  52968.102    0.1485E-21
  52968.167    0.1510E-21
  52968.232    0.1622E-21
  52968.297    0.1700E-21
  52968.362    0.1691E-21
  52968.427    0.1674E-21
  52968.492    0.1578E-21
  52968.557    0.1544E-21
  52968.622    0.1638E-21
  52968.687    0.1778E-21
  52968.751    0.1902E-21
  52968.816    0.1919E-21
  52968.881    0.1919E-21
  52968.946    0.1892E-21
  52969.011    0.1937E-21
  52969.076    0.1927E-21
  52969.141    0.1847E-21
  52969.206    0.1803E-21
  52969.271    0.1812E-21
  52969.336    0.1865E-21
  52969.401    0.1980E-21
  52969.466    0.2097E-21
  52969.531    0.2234E-21
  52969.595    0.2326E-21
  52969.660    0.2428E-21
  52969.725    0.2541E-21
  52969.790    0.2617E-21
  52969.855    0.2665E-21
  52969.920    0.2617E-21
  52969.985    0.2703E-21
  52970.050    0.2848E-21
  52970.115    0.2985E-21
  52970.180    0.3104E-21
  52970.245    0.3194E-21
  52970.310    0.3174E-21
  52970.375    0.3194E-21
  52970.440    0.3274E-21
  52970.504    0.3346E-21
  52970.569    0.3552E-21
  52970.634    0.3741E-21
  52970.699    0.3967E-21
  52970.764    0.4242E-21
  52970.829    0.4490E-21
  52970.894    0.4674E-21
  52970.959    0.4767E-21
  52971.024    0.4921E-21
  52971.089    0.5052E-21
  52971.154    0.5210E-21
  52971.219    0.5420E-21
  52971.284    0.5622E-21
  52971.349    0.5814E-21
  52971.414    0.5958E-21
  52971.478    0.6117E-21
  52971.543    0.6346E-21
  52971.608    0.6581E-21
  52971.673    0.6821E-21
  52971.738    0.7140E-21
  52971.803    0.7481E-21
  52971.868    0.7891E-21
  52971.933    0.8359E-21
  52971.998    0.8692E-21
  52972.063    0.9041E-21
  52972.128    0.9529E-21
  52972.193    0.1004E-20
  52972.258    0.1064E-20
  52972.323    0.1134E-20
  52972.388    0.1205E-20
  52972.452    0.1283E-20
  52972.517    0.1368E-20
  52972.582    0.1462E-20
  52972.647    0.1563E-20
  52972.712    0.1670E-20
  52972.777    0.1871E-20
  52972.842    0.2032E-20
  52972.907    0.2286E-20
  52972.972    0.2432E-20
  52973.037    0.2573E-20
  52973.102    0.2708E-20
  52973.167    0.2839E-20
  52973.232    0.2948E-20
  52973.297    0.3024E-20
  52973.362    0.3086E-20
  52973.427    0.3128E-20
  52973.491    0.3152E-20
  52973.556    0.3198E-20
  52973.621    0.3216E-20
  52973.686    0.3182E-20
  52973.751    0.3116E-20
  52973.816    0.3021E-20
  52973.881    0.2905E-20
  52973.946    0.2798E-20
  52974.011    0.2663E-20
  52974.076    0.2513E-20
  52974.141    0.2356E-20
  52974.206    0.2223E-20
  52974.271    0.2096E-20
  52974.336    0.2031E-20
  52974.401    0.1954E-20
  52974.466    0.1840E-20
  52974.531    0.1743E-20
  52974.596    0.1640E-20
  52974.660    0.1556E-20
  52974.725    0.1470E-20
  52974.790    0.1385E-20
  52974.855    0.1307E-20
  52974.920    0.1223E-20
  52974.985    0.1151E-20
  52975.050    0.1085E-20
  52975.115    0.1025E-20
  52975.180    0.9720E-21
  52975.245    0.9361E-21
  52975.310    0.9018E-21
  52975.375    0.8585E-21
  52975.440    0.8197E-21
  52975.505    0.7790E-21
  52975.570    0.7294E-21
  52975.635    0.6940E-21
  52975.700    0.6542E-21
  52975.765    0.6159E-21
  52975.830    0.5894E-21
  52975.895    0.5725E-21
  52975.959    0.5584E-21
  52976.024    0.5420E-21
  52976.089    0.5185E-21
  52976.154    0.4967E-21
  52976.219    0.4812E-21
  52976.284    0.4567E-21
  52976.349    0.4272E-21
  52976.414    0.4050E-21
  52976.479    0.3909E-21
  52976.544    0.3822E-21
  52976.609    0.3747E-21
  52976.674    0.3641E-21
  52976.739    0.3463E-21
  52976.804    0.3278E-21
  52976.869    0.3127E-21
  52976.934    0.2957E-21
  52976.999    0.2849E-21
  52977.064    0.2791E-21
  52977.129    0.2771E-21
  52977.194    0.2771E-21
  52977.259    0.2761E-21
  52977.324    0.2742E-21
  52977.388    0.2722E-21
  52977.453    0.2636E-21
  52977.518    0.2531E-21
  52977.583    0.2446E-21
  52977.648    0.2371E-21
  52977.713    0.2389E-21
  52977.778    0.2370E-21
  52977.843    0.2426E-21
  52977.908    0.2511E-21
  52977.973    0.2295E-21
  52978.038    0.2057E-21
  52978.103    0.1922E-21
  52978.168    0.1860E-21
  52978.233    0.1922E-21
  52978.298    0.2011E-21
  52978.363    0.1984E-21
  52978.428    0.1868E-21
  52978.493    0.1815E-21
  52978.558    0.1753E-21
  52978.623    0.1700E-21
  52978.688    0.1656E-21
  52978.753    0.1665E-21
  52978.818    0.1682E-21
  52978.883    0.1743E-21
  52978.948    0.1778E-21
  52979.013    0.1716E-21
  52979.077    0.1612E-21
  52979.142    0.1560E-21
  52979.207    0.1525E-21
  52979.272    0.1490E-21
  52979.337    0.1456E-21
  52979.402    0.1447E-21
  52979.467    0.1541E-21
  52979.532    0.1593E-21
  52979.597    0.1576E-21
  52979.662    0.1498E-21
  52979.727    0.1421E-21
  52979.792    0.1370E-21
  52979.857    0.1370E-21
  52979.922    0.1395E-21
  52979.987    0.1429E-21
  52980.052    0.1395E-21
  52980.117    0.1369E-21
  52980.182    0.1386E-21
  52980.247    0.1411E-21
  52980.312    0.1428E-21
  52980.377    0.1428E-21
  52980.442    0.1436E-21
  52980.507    0.1419E-21
  52980.572    0.1359E-21
  52980.637    0.1325E-21
  52980.702    0.1350E-21
  52980.767    0.1376E-21
  52980.832    0.1359E-21
  52980.897    0.1283E-21
  52980.962    0.1199E-21
  52981.027    0.1140E-21
  52981.092    0.1090E-21
  52981.157    0.1041E-21
  52981.221    0.1033E-21
  52981.286    0.1090E-21
  52981.351    0.1189E-21
  52981.416    0.1290E-21
  52981.481    0.1357E-21
  52981.546    0.1382E-21
  52981.611    0.1391E-21
  52981.676    0.1365E-21
  52981.741    0.1322E-21
  52981.806    0.1322E-21
  52981.871    0.1381E-21
  52981.936    0.1458E-21
  52982.001    0.1492E-21
  52982.066    0.1432E-21
  52982.131    0.1347E-21
  52982.196    0.1321E-21
  52982.261    0.1279E-21
  52982.326    0.1212E-21
  52982.391    0.1178E-21
  52982.456    0.1153E-21
  52982.521    0.1112E-21
  52982.586    0.1103E-21
  52982.651    0.1169E-21
  52982.716    0.1236E-21
  52982.781    0.1278E-21
  52982.846    0.1311E-21
  52982.911    0.1319E-21
  52982.976    0.1302E-21
  52983.041    0.1302E-21
  52983.106    0.1319E-21
  52983.171    0.1370E-21
  52983.236    0.1378E-21
  52983.301    0.1369E-21
  52983.366    0.1335E-21
  52983.431    0.1343E-21
  52983.496    0.1411E-21
  52983.561    0.1445E-21
  52983.626    0.1436E-21
  52983.691    0.1402E-21
  52983.756    0.1385E-21
  52983.821    0.1393E-21
  52983.886    0.1487E-21
  52983.951    0.1599E-21
  52984.016    0.1695E-21
  52984.081    0.1747E-21
  52984.146    0.1800E-21
  52984.211    0.1826E-21
  52984.276    0.1862E-21
  52984.341    0.1924E-21
  52984.406    0.2032E-21
  52984.471    0.2086E-21
  52984.536    0.2141E-21
  52984.601    0.2159E-21
  52984.666    0.2122E-21
  52984.731    0.2004E-21
  52984.796    0.1896E-21
  52984.861    0.1887E-21
  52984.925    0.1922E-21
  52984.990    0.1922E-21
  52985.055    0.1976E-21
  52985.120    0.1922E-21
  52985.185    0.1788E-21
  52985.250    0.1692E-21
  52985.315    0.1665E-21
  52985.380    0.1691E-21
  52985.445    0.1691E-21
  52985.510    0.1639E-21
  52985.575    0.1560E-21
  52985.640    0.1551E-21
  52985.705    0.1560E-21
  52985.770    0.1525E-21
  52985.835    0.1516E-21
  52985.900    0.1473E-21
  52985.965    0.1439E-21
  52986.030    0.1396E-21
  52986.095    0.1354E-21
  52986.160    0.1286E-21
  52986.225    0.1210E-21
  52986.290    0.1202E-21
  52986.355    0.1218E-21
  52986.420    0.1226E-21
  52986.485    0.1218E-21
  52986.550    0.1184E-21
  52986.615    0.1076E-21
  52986.680    0.9776E-22
  52986.745    0.9447E-22
  52986.810    0.1068E-21
  52986.875    0.1200E-21
  52986.940    0.1250E-21
  52987.005    0.1225E-21
  52987.070    0.1183E-21
  52987.135    0.1174E-21
  52987.200    0.1199E-21
  52987.265    0.1266E-21
  52987.330    0.1291E-21
  52987.395    0.1241E-21
  52987.460    0.1207E-21
  52987.525    0.1124E-21
  52987.590    0.1090E-21
  52987.655    0.1057E-21
  52987.720    0.1057E-21
  52987.785    0.1049E-21
  52987.850    0.1007E-21
  52987.915    0.1007E-21
  52987.980    0.9906E-22
  52988.045    0.9333E-22
  52988.110    0.9494E-22
  52988.175    0.1006E-21
  52988.240    0.1130E-21
  52988.305    0.1222E-21
  52988.370    0.1305E-21
  52988.435    0.1364E-21
  52988.500    0.1373E-21
  52988.565    0.1364E-21
  52988.630    0.1288E-21
  52988.695    0.1229E-21
  52988.760    0.1179E-21
  52988.825    0.1128E-21
  52988.890    0.1137E-21
  52988.955    0.1120E-21
  52989.020    0.1062E-21
  52989.085    0.1045E-21
  52989.150    0.1029E-21
  52989.215    0.9956E-22
  52989.280    0.9301E-22
  52989.345    0.9462E-22
  52989.410    0.1003E-21
  52989.475    0.1020E-21
  52989.540    0.1036E-21
  52989.606    0.9864E-22
  52989.671    0.9454E-22
  52989.736    0.9615E-22
  52989.801    0.9532E-22
  52989.866    0.9612E-22
  52989.931    0.9855E-22
  52989.996    0.1002E-21
  52990.061    0.1034E-21
  52990.126    0.1059E-21
  52990.191    0.1158E-21
  52990.256    0.1183E-21
  52990.321    0.1241E-21
  52990.386    0.1267E-21
  52990.451    0.1250E-21
  52990.516    0.1275E-21
  52990.581    0.1249E-21
  52990.646    0.1207E-21
  52990.711    0.1199E-21
  52990.776    0.1123E-21
  52990.841    0.1065E-21
  52990.906    0.1040E-21
  52990.971    0.1073E-21
  52991.036    0.1115E-21
  52991.101    0.1131E-21
  52991.166    0.1131E-21
  52991.231    0.1156E-21
  52991.296    0.1155E-21
  52991.361    0.1180E-21
  52991.426    0.1197E-21
  52991.491    0.1180E-21
  52991.556    0.1180E-21
  52991.621    0.1196E-21
  52991.686    0.1196E-21
  52991.751    0.1179E-21
  52991.816    0.1121E-21
  52991.881    0.1046E-21
  52991.946    0.1030E-21
  52992.011    0.1054E-21
  52992.076    0.1128E-21
  52992.141    0.1170E-21
  52992.206    0.1186E-21
  52992.271    0.1136E-21
  52992.336    0.1070E-21
  52992.401    0.1020E-21
  52992.466    0.9954E-22
  52992.531    0.1036E-21
  52992.596    0.1053E-21
  52992.661    0.1144E-21
  52992.726    0.1185E-21
  52992.791    0.1227E-21
  52992.856    0.1235E-21
  52992.921    0.1243E-21
  52992.986    0.1218E-21
  52993.051    0.1176E-21
  52993.116    0.1151E-21
  52993.181    0.1234E-21
  52993.247    0.1310E-21
  52993.312    0.1318E-21
  52993.377    0.1259E-21
  52993.442    0.1259E-21
  52993.507    0.1284E-21
  52993.572    0.1216E-21
  52993.637    0.1166E-21
  52993.702    0.1149E-21
  52993.767    0.1157E-21
  52993.832    0.1232E-21
  52993.897    0.1266E-21
  52993.962    0.1249E-21
  52994.027    0.1274E-21
  52994.092    0.1299E-21
  52994.157    0.1341E-21
  52994.222    0.1384E-21
  52994.287    0.1341E-21
  52994.352    0.1349E-21
  52994.417    0.1366E-21
  52994.482    0.1332E-21
  52994.547    0.1315E-21
  52994.612    0.1366E-21
  52994.677    0.1391E-21
  52994.742    0.1365E-21
  52994.807    0.1348E-21
  52994.872    0.1365E-21
  52994.937    0.1382E-21
  52995.002    0.1356E-21
  52995.067    0.1347E-21
  52995.132    0.1313E-21
  52995.197    0.1347E-21
  52995.262    0.1424E-21
  52995.327    0.1432E-21
  52995.393    0.1415E-21
  52995.458    0.1492E-21
  52995.523    0.1500E-21
  52995.588    0.1560E-21
  52995.653    0.1595E-21
  52995.718    0.1665E-21
  52995.783    0.1743E-21
  52995.848    0.1805E-21
  52995.913    0.1876E-21
  52995.978    0.1993E-21
  52996.043    0.2065E-21
  52996.108    0.2102E-21
  52996.173    0.2083E-21
  52996.238    0.2147E-21
  52996.303    0.2267E-21
  52996.368    0.2378E-21
  52996.433    0.2444E-21
  52996.498    0.2491E-21
  52996.563    0.2501E-21
  52996.628    0.2500E-21
  52996.693    0.2434E-21
  52996.758    0.2377E-21
  52996.823    0.2321E-21
  52996.888    0.2274E-21
  52996.953    0.2237E-21
  52997.018    0.2283E-21
  52997.084    0.2246E-21
  52997.149    0.2191E-21
  52997.214    0.2080E-21
  52997.279    0.1962E-21
  52997.344    0.1890E-21
  52997.409    0.1864E-21
  52997.474    0.1926E-21
  52997.539    0.1980E-21
  52997.604    0.1962E-21
  52997.669    0.1872E-21
  52997.734    0.1800E-21
  52997.799    0.1738E-21
  52997.864    0.1712E-21
  52997.929    0.1703E-21
  52997.994    0.1694E-21
  52998.059    0.1702E-21
  52998.124    0.1641E-21
  52998.189    0.1641E-21
  52998.254    0.1755E-21
  52998.319    0.1861E-21
  52998.384    0.1960E-21
  52998.449    0.2032E-21
  52998.514    0.1950E-21
  52998.580    0.1807E-21
  52998.645    0.1692E-21
  52998.710    0.1674E-21
  52998.775    0.1683E-21
  52998.840    0.1630E-21
  52998.905    0.1613E-21
  52998.970    0.1630E-21
  52999.035    0.1674E-21
  52999.100    0.1717E-21
  52999.165    0.1647E-21
  52999.230    0.1603E-21
  52999.295    0.1560E-21
  52999.360    0.1585E-21
  52999.425    0.1655E-21
  52999.490    0.1655E-21
  52999.555    0.1611E-21
  52999.620    0.1628E-21
  52999.685    0.1619E-21
  52999.750    0.1637E-21
  52999.816    0.1645E-21
  52999.881    0.1628E-21
  52999.946    0.1610E-21
  53000.011    0.1532E-21
  53000.076    0.1540E-21
  53000.141    0.1566E-21
  53000.206    0.1609E-21
  53000.271    0.1618E-21
  53000.336    0.1557E-21
  53000.401    0.1531E-21
  53000.466    0.1531E-21
  53000.531    0.1574E-21
  53000.596    0.1522E-21
  53000.661    0.1461E-21
  53000.726    0.1521E-21
  53000.791    0.1599E-21
  53000.856    0.1599E-21
  53000.921    0.1581E-21
  53000.987    0.1616E-21
  53001.052    0.1695E-21
  53001.117    0.1747E-21
  53001.182    0.1756E-21
  53001.247    0.1774E-21
  53001.312    0.1765E-21
  53001.377    0.1773E-21
  53001.442    0.1817E-21
  53001.507    0.1808E-21
  53001.572    0.1773E-21
  53001.637    0.1799E-21
  53001.702    0.1879E-21
  53001.767    0.1951E-21
  53001.832    0.1978E-21
  53001.897    0.1978E-21
  53001.962    0.1914E-21
  53002.027    0.1923E-21
  53002.093    0.1923E-21
  53002.158    0.1950E-21
  53002.223    0.1986E-21
  53002.288    0.1986E-21
  53002.353    0.2031E-21
  53002.418    0.2022E-21
  53002.483    0.1976E-21
  53002.548    0.1931E-21
  53002.613    0.1976E-21
  53002.678    0.1994E-21
  53002.743    0.2012E-21
  53002.808    0.2084E-21
  53002.873    0.2176E-21
  53002.938    0.2296E-21
  53003.003    0.2371E-21
  53003.069    0.2342E-21
  53003.134    0.2286E-21
  53003.199    0.2157E-21
  53003.264    0.2101E-21
  53003.329    0.2221E-21
  53003.394    0.2295E-21
  53003.459    0.2341E-21
  53003.524    0.2388E-21
  53003.589    0.2407E-21
  53003.654    0.2435E-21
  53003.719    0.2454E-21
  53003.784    0.2406E-21
  53003.849    0.2406E-21
  53003.914    0.2425E-21
  53003.980    0.2396E-21
  53004.045    0.2406E-21
  53004.110    0.2434E-21
  53004.175    0.2452E-21
  53004.240    0.2471E-21
  53004.305    0.2557E-21
  53004.370    0.2595E-21
  53004.435    0.2614E-21
  53004.500    0.2652E-21
  53004.565    0.2700E-21
  53004.630    0.2759E-21
  53004.695    0.2720E-21
  53004.760    0.2681E-21
  53004.825    0.2690E-21
  53004.891    0.2787E-21
  53004.956    0.2984E-21
  53005.021    0.3145E-21
  53005.086    0.3216E-21
  53005.151    0.3185E-21
  53005.216    0.3074E-21
  53005.281    0.2934E-21
  53005.346    0.2884E-21
  53005.411    0.2884E-21
  53005.476    0.2894E-21
  53005.541    0.2963E-21
  53005.606    0.3043E-21
  53005.671    0.3063E-21
  53005.737    0.3133E-21
  53005.802    0.3306E-21
  53005.867    0.3409E-21
  53005.932    0.3482E-21
  53005.997    0.3682E-21
  53006.062    0.3887E-21
  53006.127    0.4095E-21
  53006.192    0.4240E-21
  53006.257    0.4285E-21
  53006.322    0.4353E-21
  53006.387    0.4410E-21
  53006.452    0.4467E-21
  53006.517    0.4524E-21
  53006.583    0.4605E-21
  53006.648    0.4687E-21
  53006.713    0.4734E-21
  53006.778    0.4757E-21
  53006.843    0.4828E-21
  53006.908    0.5069E-21
  53006.973    0.5340E-21
  53007.038    0.5581E-21
  53007.103    0.5840E-21
  53007.168    0.6078E-21
  53007.233    0.6268E-21
  53007.299    0.6573E-21
  53007.364    0.6715E-21
  53007.429    0.6757E-21
  53007.494    0.6729E-21
  53007.559    0.6657E-21
  53007.624    0.6643E-21
  53007.689    0.6629E-21
  53007.754    0.6628E-21
  53007.819    0.6671E-21
  53007.884    0.6785E-21
  53007.949    0.6915E-21
  53008.014    0.6959E-21
  53008.080    0.7017E-21
  53008.145    0.7046E-21
  53008.210    0.7061E-21
  53008.275    0.7120E-21
  53008.340    0.7269E-21
  53008.405    0.7406E-21
  53008.470    0.7528E-21
  53008.535    0.7700E-21
  53008.600    0.7405E-21
  53008.665    0.7487E-21
  53008.730    0.7517E-21
  53008.796    0.7585E-21
  53008.861    0.7736E-21
  53008.926    0.8049E-21
  53008.991    0.8369E-21
  53009.056    0.8701E-21
  53009.121    0.9082E-21
  53009.186    0.9346E-21
  53009.251    0.9561E-21
  53009.316    0.9779E-21
  53009.381    0.1001E-20
  53009.446    0.1036E-20
  53009.512    0.1088E-20
  53009.577    0.1135E-20
  53009.642    0.1165E-20
  53009.707    0.1192E-20
  53009.772    0.1229E-20
  53009.837    0.1280E-20
  53009.902    0.1335E-20
  53009.967    0.1396E-20
  53010.032    0.1465E-20
  53010.097    0.1534E-20
  53010.163    0.1604E-20
  53010.228    0.1668E-20
  53010.293    0.1742E-20
  53010.358    0.1825E-20
  53010.423    0.1909E-20
  53010.488    0.1960E-20
  53010.553    0.2058E-20
  53010.618    0.2197E-20
  53010.683    0.2325E-20
  53010.748    0.2478E-20
  53010.814    0.2601E-20
  53010.879    0.2731E-20
  53010.944    0.2876E-20
  53011.009    0.3048E-20
  53011.074    0.3242E-20
  53011.139    0.3460E-20
  53011.204    0.3671E-20
  53011.269    0.3873E-20
  53011.334    0.4118E-20
  53011.399    0.4455E-20
  53011.465    0.4726E-20
  53011.530    0.5101E-20
  53011.595    0.5513E-20
  53011.660    0.5939E-20
  53011.725    0.6429E-20
  53011.790    0.6913E-20
  53011.855    0.7407E-20
  53011.920    0.7911E-20
  53011.985    0.8418E-20
  53012.050    0.8920E-20
  53012.116    0.9704E-20
  53012.181    0.1019E-19
  53012.246    0.1061E-19
  53012.311    0.1089E-19
  53012.376    0.1112E-19
  53012.441    0.1130E-19
  53012.506    0.1141E-19
  53012.571    0.1144E-19
  53012.636    0.1133E-19
  53012.702    0.1104E-19
  53012.767    0.1058E-19
  53012.832    0.1013E-19
  53012.897    0.9723E-20
  53012.962    0.9256E-20
  53013.027    0.8848E-20
  53013.092    0.8403E-20
  53013.157    0.7928E-20
  53013.222    0.7507E-20
  53013.288    0.7119E-20
  53013.353    0.6727E-20
  53013.418    0.6350E-20
  53013.483    0.6003E-20
  53013.548    0.5674E-20
  53013.613    0.5168E-20
  53013.678    0.4886E-20
  53013.743    0.4588E-20
  53013.808    0.4293E-20
  53013.874    0.3925E-20
  53013.939    0.3685E-20
  53014.004    0.3466E-20
  53014.069    0.3250E-20
  53014.134    0.3068E-20
  53014.199    0.2892E-20
  53014.264    0.2709E-20
  53014.329    0.2546E-20
  53014.394    0.2414E-20
  53014.460    0.2289E-20
  53014.525    0.2181E-20
  53014.590    0.2084E-20
  53014.655    0.2009E-20
  53014.720    0.1922E-20
  53014.785    0.1835E-20
  53014.850    0.1744E-20
  53014.915    0.1669E-20
  53014.981    0.1594E-20
  53015.046    0.1523E-20
  53015.111    0.1457E-20
  53015.176    0.1395E-20
  53015.241    0.1336E-20
  53015.306    0.1289E-20
  53015.371    0.1249E-20
  53015.436    0.1216E-20
  53015.501    0.1165E-20
  53015.567    0.1120E-20
  53015.632    0.1076E-20
  53015.697    0.1023E-20
  53015.762    0.9887E-21
  53015.827    0.9703E-21
  53015.892    0.9499E-21
  53015.957    0.9260E-21
  53016.022    0.9121E-21
  53016.088    0.9042E-21
  53016.153    0.8855E-21
  53016.218    0.8622E-21
  53016.283    0.8420E-21
  53016.348    0.8326E-21
  53016.413    0.8214E-21
  53016.478    0.8080E-21
  53016.543    0.7965E-21
  53016.609    0.7867E-21
  53016.674    0.7730E-21
  53016.739    0.7680E-21
  53016.804    0.7686E-21
  53016.869    0.7727E-21
  53016.934    0.7819E-21
  53016.999    0.7809E-21
  53017.064    0.7626E-21
  53017.130    0.7584E-21
  53017.195    0.7429E-21
  53017.260    0.7337E-21
  53017.325    0.7261E-21
  53017.390    0.7156E-21
  53017.455    0.6949E-21
  53017.520    0.6703E-21
  53017.585    0.6518E-21
  53017.651    0.6420E-21
  53017.716    0.6323E-21
  53017.781    0.6227E-21
  53017.846    0.6105E-21
  53017.911    0.5917E-21
  53017.976    0.5746E-21
  53018.041    0.5642E-21
  53018.107    0.5539E-21
  53018.172    0.5412E-21
  53018.237    0.5274E-21
  53018.302    0.5113E-21
  53018.367    0.4991E-21
  53018.432    0.4942E-21
  53018.497    0.4978E-21
  53018.562    0.5015E-21
  53018.628    0.4918E-21
  53018.693    0.4786E-21
  53018.758    0.4620E-21
  53018.823    0.4435E-21
  53018.888    0.4309E-21
  53018.953    0.4185E-21
  53019.018    0.4128E-21
  53019.084    0.4095E-21
  53019.149    0.4039E-21
  53019.214    0.4039E-21
  53019.279    0.4083E-21
  53019.344    0.4039E-21
  53019.409    0.3961E-21
  53019.474    0.3939E-21
  53019.539    0.3863E-21
  53019.605    0.3884E-21
  53019.670    0.3917E-21
  53019.735    0.3960E-21
  53019.800    0.3960E-21
  53019.865    0.3927E-21
  53019.930    0.3883E-21
  53019.995    0.3785E-21
  53020.061    0.3721E-21
  53020.126    0.3731E-21
  53020.191    0.3731E-21
  53020.256    0.3828E-21
  53020.321    0.3861E-21
  53020.386    0.3806E-21
  53020.451    0.3806E-21
  53020.517    0.3806E-21
  53020.582    0.3719E-21
  53020.647    0.3655E-21
  53020.712    0.3623E-21
  53020.777    0.3580E-21
  53020.842    0.3485E-21
  53020.907    0.3433E-21
  53020.973    0.3349E-21
  53021.038    0.3370E-21
  53021.103    0.3411E-21
  53021.168    0.3484E-21
  53021.233    0.3505E-21
  53021.298    0.3526E-21
  53021.363    0.3536E-21
  53021.429    0.3473E-21
  53021.494    0.3400E-21
  53021.559    0.3379E-21
  53021.624    0.3348E-21
  53021.689    0.3285E-21
  53021.754    0.3224E-21
  53021.819    0.3132E-21
  53021.885    0.3071E-21
  53021.950    0.3091E-21
  53022.015    0.3182E-21
  53022.080    0.3233E-21
  53022.145    0.3295E-21
  53022.210    0.3284E-21
  53022.275    0.3171E-21
  53022.341    0.3100E-21
  53022.406    0.3019E-21
  53022.471    0.3069E-21
  53022.536    0.3120E-21
  53022.601    0.3160E-21
  53022.666    0.3221E-21
  53022.732    0.3272E-21
  53022.797    0.3355E-21
  53022.862    0.3407E-21
  53022.927    0.3324E-21
  53022.992    0.3231E-21
  53023.057    0.3169E-21
  53023.122    0.3149E-21
  53023.188    0.3138E-21
  53023.253    0.3169E-21
  53023.318    0.3199E-21
  53023.383    0.3148E-21
  53023.448    0.3128E-21
  53023.513    0.3087E-21
  53023.579    0.3117E-21
  53023.644    0.3239E-21
  53023.709    0.3373E-21
  53023.774    0.3425E-21
  53023.839    0.3425E-21
  53023.904    0.3488E-21
  53023.969    0.3625E-21
  53024.035    0.3807E-21
  53024.100    0.3938E-21
  53024.165    0.4015E-21
  53024.230    0.4037E-21
  53024.295    0.4015E-21
  53024.360    0.3992E-21
  53024.426    0.4025E-21
  53024.491    0.4103E-21
  53024.556    0.4159E-21
  53024.621    0.4192E-21
  53024.686    0.4260E-21
  53024.751    0.4339E-21
  53024.817    0.4419E-21
  53024.882    0.4570E-21
  53024.947    0.4710E-21
  53025.012    0.4853E-21
  53025.077    0.4925E-21
  53025.142    0.4913E-21
  53025.207    0.4937E-21
  53025.273    0.4997E-21
  53025.338    0.5107E-21
  53025.403    0.5119E-21
  53025.468    0.5058E-21
  53025.533    0.4912E-21
  53025.598    0.4816E-21
  53025.664    0.4815E-21
  53025.729    0.4756E-21
  53025.794    0.4673E-21
  53025.859    0.4555E-21
  53025.924    0.4451E-21
  53025.989    0.4393E-21
  53026.055    0.4279E-21
  53026.120    0.4121E-21
  53026.185    0.3977E-21
  53026.250    0.3813E-21
  53026.315    0.3812E-21
  53026.380    0.3932E-21
  53026.446    0.3998E-21
  53026.511    0.4031E-21
  53026.576    0.3910E-21
  53026.641    0.3790E-21
  53026.706    0.3671E-21
  53026.771    0.3501E-21
  53026.837    0.3449E-21
  53026.902    0.3469E-21
  53026.967    0.3501E-21
  53027.032    0.3532E-21
  53027.097    0.3543E-21
  53027.162    0.3448E-21
  53027.228    0.3437E-21
  53027.293    0.3458E-21
  53027.358    0.3510E-21
  53027.423    0.3584E-21
  53027.488    0.3605E-21
  53027.553    0.3626E-21
  53027.619    0.3637E-21
  53027.684    0.3562E-21
  53027.749    0.3499E-21
  53027.814    0.3446E-21
  53027.879    0.3342E-21
  53027.945    0.3228E-21
  53028.010    0.3177E-21
  53028.075    0.3218E-21
  53028.140    0.3341E-21
  53028.205    0.3414E-21
  53028.270    0.3487E-21
  53028.336    0.3518E-21
  53028.401    0.3529E-21
  53028.466    0.3497E-21
  53028.531    0.3455E-21
  53028.596    0.3465E-21
  53028.661    0.3570E-21
  53028.727    0.3655E-21
  53028.792    0.3581E-21
  53028.857    0.3433E-21
  53028.922    0.3339E-21
  53028.987    0.3256E-21
  53029.053    0.3236E-21
  53029.118    0.3246E-21
  53029.183    0.3359E-21
  53029.248    0.3474E-21
  53029.313    0.3601E-21
  53029.378    0.3622E-21
  53029.444    0.3547E-21
  53029.509    0.3484E-21
  53029.574    0.3505E-21
  53029.639    0.3557E-21
  53029.704    0.3631E-21
  53029.769    0.3739E-21
  53029.835    0.3869E-21
  53029.900    0.3912E-21
  53029.965    0.4022E-21
  53030.030    0.4178E-21
  53030.095    0.4201E-21
  53030.161    0.4099E-21
  53030.226    0.4021E-21
  53030.291    0.3999E-21
  53030.356    0.3944E-21
  53030.421    0.3911E-21
  53030.486    0.3933E-21
  53030.552    0.3943E-21
  53030.617    0.3965E-21
  53030.682    0.3998E-21
  53030.747    0.3998E-21
  53030.812    0.3954E-21
  53030.878    0.3932E-21
  53030.943    0.3953E-21
  53031.008    0.4086E-21
  53031.073    0.4346E-21
  53031.138    0.4565E-21
  53031.204    0.4789E-21
  53031.269    0.4921E-21
  53031.334    0.4994E-21
  53031.399    0.5140E-21
  53031.464    0.5277E-21
  53031.529    0.5453E-21
  53031.595    0.5555E-21
  53031.660    0.5646E-21
  53031.725    0.5723E-21
  53031.790    0.5815E-21
  53031.855    0.5961E-21
  53031.921    0.6136E-21
  53031.986    0.6259E-21
  53032.051    0.6286E-21
  53032.116    0.6245E-21
  53032.181    0.6272E-21
  53032.247    0.6217E-21
  53032.312    0.6054E-21
  53032.377    0.5946E-21
  53032.442    0.5800E-21
  53032.507    0.5695E-21
  53032.573    0.5695E-21
  53032.638    0.5669E-21
  53032.703    0.5578E-21
  53032.768    0.5501E-21
  53032.833    0.5501E-21
  53032.898    0.5488E-21
  53032.964    0.5462E-21
  53033.029    0.5386E-21
  53033.094    0.5348E-21
  53033.159    0.5310E-21
  53033.224    0.5247E-21
  53033.290    0.5235E-21
  53033.355    0.5235E-21
  53033.420    0.5172E-21
  53033.485    0.5000E-21
  53033.550    0.4783E-21
  53033.616    0.4735E-21
  53033.681    0.4783E-21
  53033.746    0.4854E-21
  53033.811    0.4914E-21
  53033.876    0.4951E-21
  53033.942    0.4938E-21
  53034.007    0.4914E-21
  53034.072    0.4865E-21
  53034.137    0.4865E-21
  53034.202    0.4925E-21
  53034.268    0.5010E-21
  53034.333    0.4998E-21
  53034.398    0.5047E-21
  53034.463    0.4998E-21
  53034.528    0.5010E-21
  53034.594    0.5034E-21
  53034.659    0.5021E-21
  53034.724    0.4973E-21
  53034.789    0.5009E-21
  53034.854    0.5021E-21
  53034.920    0.5082E-21
  53034.985    0.5280E-21
  53035.050    0.5457E-21
  53035.115    0.5598E-21
  53035.180    0.5701E-21
  53035.246    0.5727E-21
  53035.311    0.5753E-21
  53035.376    0.5740E-21
  53035.441    0.5688E-21
  53035.506    0.5675E-21
  53035.572    0.5648E-21
  53035.637    0.5635E-21
  53035.702    0.5766E-21
  53035.767    0.5792E-21
  53035.833    0.5818E-21
  53035.898    0.5937E-21
  53035.963    0.6098E-21
  53036.028    0.6234E-21
  53036.093    0.6303E-21
  53036.159    0.6386E-21
  53036.224    0.6484E-21
  53036.289    0.6526E-21
  53036.354    0.6484E-21
  53036.419    0.6441E-21
  53036.485    0.6526E-21
  53036.550    0.6754E-21
  53036.615    0.7061E-21
  53036.680    0.7348E-21
  53036.745    0.7595E-21
  53036.811    0.7801E-21
  53036.876    0.8043E-21
  53036.941    0.7409E-21
  53037.006    0.7649E-21
  53037.072    0.7758E-21
  53037.137    0.7856E-21
  53037.202    0.7965E-21
  53037.267    0.7969E-21
  53037.332    0.8032E-21
  53037.398    0.8126E-21
  53037.463    0.8285E-21
  53037.528    0.8400E-21
  53037.593    0.8374E-21
  53037.658    0.8209E-21
  53037.724    0.8008E-21
  53037.789    0.7951E-21
  53037.854    0.7954E-21
  53037.919    0.7939E-21
  53037.985    0.7891E-21
  53038.050    0.7855E-21
  53038.115    0.7730E-21
  53038.180    0.7636E-21
  53038.245    0.7713E-21
  53038.311    0.7816E-21
  53038.376    0.7899E-21
  53038.441    0.8009E-21
  53038.506    0.8055E-21
  53038.571    0.8039E-21
  53038.637    0.8040E-21
  53038.702    0.8105E-21
  53038.767    0.8136E-21
  53038.832    0.8194E-21
  53038.898    0.8376E-21
  53038.963    0.8538E-21
  53039.028    0.8666E-21
  53039.093    0.8827E-21
  53039.158    0.8984E-21
  53039.224    0.9131E-21
  53039.289    0.9221E-21
  53039.354    0.9274E-21
  53039.419    0.9378E-21
  53039.485    0.9594E-21
  53039.550    0.9860E-21
  53039.615    0.1005E-20
  53039.680    0.1032E-20
  53039.745    0.1048E-20
  53039.811    0.1062E-20
  53039.876    0.1081E-20
  53039.941    0.1092E-20
  53040.006    0.1112E-20
  53040.072    0.1126E-20
  53040.137    0.1147E-20
  53040.202    0.1178E-20
  53040.267    0.1216E-20
  53040.332    0.1249E-20
  53040.398    0.1274E-20
  53040.463    0.1309E-20
  53040.528    0.1332E-20
  53040.593    0.1350E-20
  53040.659    0.1371E-20
  53040.724    0.1397E-20
  53040.789    0.1433E-20
  53040.854    0.1472E-20
  53040.920    0.1510E-20
  53040.985    0.1557E-20
  53041.050    0.1598E-20
  53041.115    0.1632E-20
  53041.180    0.1669E-20
  53041.246    0.1693E-20
  53041.311    0.1725E-20
  53041.376    0.1768E-20
  53041.441    0.1803E-20
  53041.507    0.1830E-20
  53041.572    0.1862E-20
  53041.637    0.1894E-20
  53041.702    0.1933E-20
  53041.768    0.1970E-20
  53041.833    0.2026E-20
  53041.898    0.2026E-20
  53041.963    0.2069E-20
  53042.028    0.2090E-20
  53042.094    0.2118E-20
  53042.159    0.2169E-20
  53042.224    0.2233E-20
  53042.289    0.2324E-20
  53042.355    0.2420E-20
  53042.420    0.2505E-20
  53042.485    0.2608E-20
  53042.550    0.2686E-20
  53042.616    0.2777E-20
  53042.681    0.2852E-20
  53042.746    0.2937E-20
  53042.811    0.3039E-20
  53042.876    0.3159E-20
  53042.942    0.3299E-20
  53043.007    0.3446E-20
  53043.072    0.3617E-20
  53043.137    0.3807E-20
  53043.203    0.4018E-20
  53043.268    0.4294E-20
  53043.333    0.4492E-20
  53043.398    0.4728E-20
  53043.464    0.5006E-20
  53043.529    0.5461E-20
  53043.594    0.5782E-20
  53043.659    0.6116E-20
  53043.725    0.6479E-20
  53043.790    0.6790E-20
  53043.855    0.7155E-20
  53043.920    0.7595E-20
  53043.986    0.8065E-20
  53044.051    0.8630E-20
  53044.116    0.9339E-20
  53044.181    0.1011E-19
  53044.247    0.1048E-19
  53044.312    0.1119E-19
  53044.377    0.1199E-19
  53044.442    0.1276E-19
  53044.508    0.1409E-19
  53044.573    0.1538E-19
  53044.638    0.1675E-19
  53044.703    0.1822E-19
  53044.768    0.2008E-19
  53044.834    0.2151E-19
  53044.899    0.2298E-19
  53044.964    0.2451E-19
  53045.029    0.2593E-19
  53045.095    0.2728E-19
  53045.160    0.2869E-19
  53045.225    0.3032E-19
  53045.290    0.3193E-19
  53045.356    0.3239E-19
  53045.421    0.3225E-19
  53045.486    0.3195E-19
  53045.551    0.3147E-19
  53045.617    0.3082E-19
  53045.682    0.3026E-19
  53045.747    0.2865E-19
  53045.812    0.2767E-19
  53045.878    0.2661E-19
  53045.943    0.2537E-19
  53046.008    0.2411E-19
  53046.073    0.2301E-19
  53046.139    0.2175E-19
  53046.204    0.2073E-19
  53046.269    0.1987E-19
  53046.334    0.1883E-19
  53046.400    0.1773E-19
  53046.465    0.1669E-19
  53046.530    0.1572E-19
  53046.595    0.1481E-19
  53046.661    0.1384E-19
  53046.726    0.1261E-19
  53046.791    0.1179E-19
  53046.856    0.1112E-19
  53046.922    0.1063E-19
  53046.987    0.9940E-20
  53047.052    0.9279E-20
  53047.117    0.8359E-20
  53047.183    0.7874E-20
  53047.248    0.7452E-20
  53047.313    0.7077E-20
  53047.379    0.6735E-20
  53047.444    0.6399E-20
  53047.509    0.6051E-20
  53047.574    0.5713E-20
  53047.640    0.5396E-20
  53047.705    0.5116E-20
  53047.770    0.4909E-20
  53047.835    0.4781E-20
  53047.901    0.4621E-20
  53047.966    0.4447E-20
  53048.031    0.4288E-20
  53048.096    0.4080E-20
  53048.162    0.3906E-20
  53048.227    0.3759E-20
  53048.292    0.3609E-20
  53048.357    0.3440E-20
  53048.423    0.3289E-20
  53048.488    0.3127E-20
  53048.553    0.2986E-20
  53048.618    0.2861E-20
  53048.684    0.2748E-20
  53048.749    0.2653E-20
  53048.814    0.2576E-20
  53048.879    0.2494E-20
  53048.945    0.2418E-20
  53049.010    0.2330E-20
  53049.075    0.2225E-20
  53049.141    0.2114E-20
  53049.206    0.2032E-20
  53049.271    0.2019E-20
  53049.336    0.1966E-20
  53049.402    0.1931E-20
  53049.467    0.1894E-20
  53049.532    0.1867E-20
  53049.597    0.1826E-20
  53049.663    0.1784E-20
  53049.728    0.1741E-20
  53049.793    0.1698E-20
  53049.858    0.1651E-20
  53049.924    0.1610E-20
  53049.989    0.1556E-20
  53050.054    0.1516E-20
  53050.120    0.1485E-20
  53050.185    0.1448E-20
  53050.250    0.1423E-20
  53050.315    0.1404E-20
  53050.381    0.1389E-20
  53050.446    0.1384E-20
  53050.511    0.1369E-20
  53050.576    0.1360E-20
  53050.642    0.1346E-20
  53050.707    0.1325E-20
  53050.772    0.1300E-20
  53050.837    0.1264E-20
  53050.903    0.1227E-20
  53050.968    0.1198E-20
  53051.033    0.1184E-20
  53051.099    0.1171E-20
  53051.164    0.1155E-20
  53051.229    0.1129E-20
  53051.294    0.1113E-20
  53051.360    0.1104E-20
  53051.425    0.1091E-20
  53051.490    0.1078E-20
  53051.555    0.1064E-20
  53051.621    0.1048E-20
  53051.686    0.1030E-20
  53051.751    0.1017E-20
  53051.817    0.1007E-20
  53051.882    0.9930E-21
  53051.947    0.9926E-21
  53052.012    0.9873E-21
  53052.078    0.9775E-21
  53052.143    0.9548E-21
  53052.208    0.9336E-21
  53052.273    0.9110E-21
  53052.339    0.8992E-21
  53052.404    0.9024E-21
  53052.469    0.9084E-21
  53052.535    0.9105E-21
  53052.600    0.9150E-21
  53052.665    0.9195E-21
  53052.730    0.9119E-21
  53052.796    0.9064E-21
  53052.861    0.8933E-21
  53052.926    0.8869E-21
  53052.992    0.8813E-21
  53053.057    0.8653E-21
  53053.122    0.8571E-21
  53053.187    0.8376E-21
  53053.253    0.8235E-21
  53053.318    0.8266E-21
  53053.383    0.8296E-21
  53053.449    0.8359E-21
  53053.514    0.8430E-21
  53053.579    0.8540E-21
  53053.644    0.8546E-21
  53053.710    0.8443E-21
  53053.775    0.8397E-21
  53053.840    0.8460E-21
  53053.906    0.8497E-21
  53053.971    0.8544E-21
  53054.036    0.8443E-21
  53054.101    0.8221E-21
  53054.167    0.7977E-21
  53054.232    0.7873E-21
  53054.297    0.7844E-21
  53054.362    0.7787E-21
  53054.428    0.7735E-21
  53054.493    0.7775E-21
  53054.558    0.7782E-21
  53054.624    0.7834E-21
  53054.689    0.7945E-21
  53054.754    0.7989E-21
  53054.820    0.8012E-21
  53054.885    0.7905E-21
  53054.950    0.7814E-21
  53055.015    0.7694E-21
  53055.081    0.7509E-21
  53055.146    0.8327E-21
  53055.211    0.8327E-21
  53055.277    0.8395E-21
  53055.342    0.7370E-21
  53055.407    0.7386E-21
  53055.472    0.7359E-21
  53055.538    0.8142E-21
  53055.603    0.8142E-21
  53055.668    0.8208E-21
  53055.734    0.8292E-21
  53055.799    0.8444E-21
  53055.864    0.7364E-21
  53055.929    0.7387E-21
  53055.995    0.7460E-21
  53056.060    0.7604E-21
  53056.125    0.7649E-21
  53056.191    0.7626E-21
  53056.256    0.7612E-21
  53056.321    0.7654E-21
  53056.386    0.7686E-21
  53056.452    0.7633E-21
  53056.517    0.7615E-21
  53056.582    0.7664E-21
  53056.648    0.7677E-21
  53056.713    0.7744E-21
  53056.778    0.7842E-21
  53056.844    0.7881E-21
  53056.909    0.7818E-21
  53056.974    0.7851E-21
  53057.039    0.7855E-21
  53057.105    0.7811E-21
  53057.170    0.7677E-21
  53057.235    0.7490E-21
  53057.301    0.8509E-21
  53057.366    0.8423E-21
  53057.431    0.7378E-21
  53057.497    0.7568E-21
  53057.562    0.7702E-21
  53057.627    0.7736E-21
  53057.692    0.7666E-21
  53057.758    0.7583E-21
  53057.823    0.7440E-21
  53057.888    0.7398E-21
  53057.954    0.7525E-21
  53058.019    0.7622E-21
  53058.084    0.7718E-21
  53058.150    0.7765E-21
  53058.215    0.7621E-21
  53058.280    0.7466E-21
  53058.345    0.7470E-21
  53058.411    0.7582E-21
  53058.476    0.7656E-21
  53058.541    0.7651E-21
  53058.607    0.7622E-21
  53058.672    0.7609E-21
  53058.737    0.7576E-21
  53058.803    0.7635E-21
  53058.868    0.7689E-21
  53058.933    0.7813E-21
  53058.998    0.7935E-21
  53059.064    0.8008E-21
  53059.129    0.7972E-21
  53059.194    0.8010E-21
  53059.260    0.8034E-21
  53059.325    0.7988E-21
  53059.390    0.7957E-21
  53059.456    0.7966E-21
  53059.521    0.7973E-21
  53059.586    0.8032E-21
  53059.652    0.8109E-21
  53059.717    0.8170E-21
  53059.782    0.8149E-21
  53059.847    0.8051E-21
  53059.913    0.8023E-21
  53059.978    0.8043E-21
  53060.043    0.8013E-21
  53060.109    0.7942E-21
  53060.174    0.7942E-21
  53060.239    0.7938E-21
  53060.305    0.8159E-21
  53060.370    0.8317E-21
  53060.435    0.8390E-21
  53060.501    0.8410E-21
  53060.566    0.8433E-21
  53060.631    0.8450E-21
  53060.697    0.8453E-21
  53060.762    0.8445E-21
  53060.827    0.8472E-21
  53060.892    0.8450E-21
  53060.958    0.8469E-21
  53061.023    0.8692E-21
  53061.088    0.8916E-21
  53061.154    0.8943E-21
  53061.219    0.8953E-21
  53061.284    0.8941E-21
  53061.350    0.8983E-21
  53061.415    0.9194E-21
  53061.480    0.9433E-21
  53061.546    0.9575E-21
  53061.611    0.9741E-21
  53061.676    0.9711E-21
  53061.742    0.9739E-21
  53061.807    0.9824E-21
  53061.872    0.9839E-21
  53061.938    0.9845E-21
  53062.003    0.9890E-21
  53062.068    0.9972E-21
  53062.133    0.1010E-20
  53062.199    0.1007E-20
  53062.264    0.1000E-20
  53062.329    0.1001E-20
  53062.395    0.1017E-20
  53062.460    0.1031E-20
  53062.525    0.1056E-20
  53062.591    0.1073E-20
  53062.656    0.1077E-20
  53062.721    0.1078E-20
  53062.787    0.1077E-20
  53062.852    0.1072E-20
  53062.917    0.1069E-20
  53062.983    0.1074E-20
  53063.048    0.1077E-20
  53063.113    0.1078E-20
  53063.179    0.1095E-20
  53063.244    0.1111E-20
  53063.309    0.1113E-20
  53063.375    0.1112E-20
  53063.440    0.1108E-20
  53063.505    0.1117E-20
  53063.571    0.1131E-20
  53063.636    0.1145E-20
  53063.701    0.1155E-20
  53063.767    0.1173E-20
  53063.832    0.1186E-20
  53063.897    0.1183E-20
  53063.963    0.1190E-20
  53064.028    0.1207E-20
  53064.093    0.1215E-20
  53064.159    0.1222E-20
  53064.224    0.1228E-20
  53064.289    0.1226E-20
  53064.354    0.1232E-20
  53064.420    0.1238E-20
  53064.485    0.1250E-20
  53064.550    0.1279E-20
  53064.616    0.1312E-20
  53064.681    0.1330E-20
  53064.746    0.1342E-20
  53064.812    0.1356E-20
  53064.877    0.1380E-20
  53064.942    0.1402E-20
  53065.008    0.1413E-20
  53065.073    0.1427E-20
  53065.138    0.1444E-20
  53065.204    0.1465E-20
  53065.269    0.1478E-20
  53065.334    0.1480E-20
  53065.400    0.1475E-20
  53065.465    0.1475E-20
  53065.530    0.1494E-20
  53065.596    0.1515E-20
  53065.661    0.1524E-20
  53065.726    0.1539E-20
  53065.792    0.1556E-20
  53065.857    0.1587E-20
  53065.922    0.1621E-20
  53065.988    0.1653E-20
  53066.053    0.1678E-20
  53066.118    0.1696E-20
  53066.184    0.1724E-20
  53066.249    0.1744E-20
  53066.314    0.1767E-20
  53066.380    0.1784E-20
  53066.445    0.1796E-20
  53066.510    0.1807E-20
  53066.576    0.1818E-20
  53066.641    0.1846E-20
  53066.706    0.1873E-20
  53066.772    0.1909E-20
  53066.837    0.1951E-20
  53066.903    0.1999E-20
  53066.968    0.1953E-20
  53067.033    0.1964E-20
  53067.099    0.1906E-20
  53067.164    0.1954E-20
  53067.229    0.2010E-20
  53067.295    0.2040E-20
  53067.360    0.2058E-20
  53067.425    0.2077E-20
  53067.491    0.2111E-20
  53067.556    0.2136E-20
  53067.621    0.2180E-20
  53067.687    0.2220E-20
  53067.752    0.2283E-20
  53067.817    0.2347E-20
  53067.883    0.2399E-20
  53067.948    0.2461E-20
  53068.013    0.2530E-20
  53068.079    0.2594E-20
  53068.144    0.2661E-20
  53068.209    0.2726E-20
  53068.275    0.2805E-20
  53068.340    0.2889E-20
  53068.405    0.2967E-20
  53068.471    0.3023E-20
  53068.536    0.3084E-20
  53068.601    0.3167E-20
  53068.667    0.3252E-20
  53068.732    0.3332E-20
  53068.797    0.3444E-20
  53068.863    0.3551E-20
  53068.928    0.3628E-20
  53068.994    0.3732E-20
  53069.059    0.3809E-20
  53069.124    0.3899E-20
  53069.190    0.4011E-20
  53069.255    0.4154E-20
  53069.320    0.4309E-20
  53069.386    0.4398E-20
  53069.451    0.4524E-20
  53069.516    0.4659E-20
  53069.582    0.4791E-20
  53069.647    0.4933E-20
  53069.712    0.5136E-20
  53069.778    0.5397E-20
  53069.843    0.5681E-20
  53069.908    0.5944E-20
  53069.974    0.6210E-20
  53070.039    0.6438E-20
  53070.104    0.6707E-20
  53070.170    0.6977E-20
  53070.235    0.7288E-20
  53070.301    0.7637E-20
  53070.366    0.8002E-20
  53070.431    0.8357E-20
  53070.497    0.8676E-20
  53070.562    0.9537E-20
  53070.627    0.1007E-19
  53070.693    0.1062E-19
  53070.758    0.1113E-19
  53070.823    0.1173E-19
  53070.889    0.1245E-19
  53070.954    0.1374E-19
  53071.019    0.1475E-19
  53071.085    0.1567E-19
  53071.150    0.1669E-19
  53071.216    0.1775E-19
  53071.281    0.1952E-19
  53071.346    0.2087E-19
  53071.412    0.2221E-19
  53071.477    0.2392E-19
  53071.542    0.2577E-19
  53071.608    0.2765E-19
  53071.673    0.2973E-19
  53071.738    0.3439E-19
  53071.804    0.3686E-19
  53071.869    0.3977E-19
  53071.934    0.4307E-19
  53072.000    0.4752E-19
  53072.065    0.5086E-19
  53072.131    0.5433E-19
  53072.196    0.5762E-19
  53072.261    0.6028E-19
  53072.327    0.6300E-19
  53072.392    0.6473E-19
  53072.457    0.6718E-19
  53072.523    0.6844E-19
  53072.588    0.6934E-19
  53072.653    0.6991E-19
  53072.719    0.6917E-19
  53072.784    0.6630E-19
  53072.850    0.6434E-19
  53072.915    0.6127E-19
  53072.980    0.5804E-19
  53073.046    0.5493E-19
  53073.111    0.5201E-19
  53073.176    0.4920E-19
  53073.242    0.4622E-19
  53073.307    0.4357E-19
  53073.372    0.4085E-19
  53073.438    0.3827E-19
  53073.503    0.3569E-19
  53073.569    0.3328E-19
  53073.634    0.3011E-19
  53073.699    0.2791E-19
  53073.765    0.2648E-19
  53073.830    0.2474E-19
  53073.895    0.2326E-19
  53073.961    0.2193E-19
  53074.026    0.2059E-19
  53074.092    0.1923E-19
  53074.157    0.1806E-19
  53074.222    0.1695E-19
  53074.288    0.1612E-19
  53074.353    0.1535E-19
  53074.418    0.1454E-19
  53074.484    0.1373E-19
  53074.549    0.1300E-19
  53074.614    0.1224E-19
  53074.680    0.1166E-19
  53074.745    0.1112E-19
  53074.811    0.1061E-19
  53074.876    0.1003E-19
  53074.941    0.9907E-20
  53075.007    0.9501E-20
  53075.072    0.9066E-20
  53075.137    0.8619E-20
  53075.203    0.8101E-20
  53075.268    0.7597E-20
  53075.334    0.7174E-20
  53075.399    0.6898E-20
  53075.464    0.6682E-20
  53075.530    0.6486E-20
  53075.595    0.6288E-20
  53075.660    0.6043E-20
  53075.726    0.5818E-20
  53075.791    0.5566E-20
  53075.857    0.5375E-20
  53075.922    0.5216E-20
  53075.987    0.5073E-20
  53076.053    0.4949E-20
  53076.118    0.4855E-20
  53076.183    0.4682E-20
  53076.249    0.4556E-20
  53076.314    0.4439E-20
  53076.380    0.4293E-20
  53076.445    0.4220E-20
  53076.510    0.4111E-20
  53076.576    0.3956E-20
  53076.641    0.3776E-20
  53076.707    0.3642E-20
  53076.772    0.3550E-20
  53076.837    0.3488E-20
  53076.903    0.3445E-20
  53076.968    0.3386E-20
  53077.033    0.3305E-20
  53077.099    0.3195E-20
  53077.164    0.3108E-20
  53077.230    0.3029E-20
  53077.295    0.2959E-20
  53077.360    0.2893E-20
  53077.426    0.2843E-20
  53077.491    0.2777E-20
  53077.557    0.2719E-20
  53077.622    0.2653E-20
  53077.687    0.2600E-20
  53077.753    0.2575E-20
  53077.818    0.2547E-20
  53077.883    0.2523E-20
  53077.949    0.2502E-20
  53078.014    0.2452E-20
  53078.080    0.2380E-20
  53078.145    0.2313E-20
  53078.210    0.2262E-20
  53078.276    0.2225E-20
  53078.341    0.2202E-20
  53078.407    0.2184E-20
  53078.472    0.2146E-20
  53078.537    0.2122E-20
  53078.603    0.2100E-20
  53078.668    0.2090E-20
  53078.733    0.2083E-20
  53078.799    0.2089E-20
  53078.864    0.2093E-20
  53078.930    0.2066E-20
  53078.995    0.2044E-20
  53079.060    0.2015E-20
  53079.126    0.1987E-20
  53079.191    0.1931E-20
  53079.257    0.1883E-20
  53079.322    0.1966E-20
  53079.387    0.1944E-20
  53079.453    0.2068E-20
  53079.518    0.2044E-20
  53079.584    0.2033E-20
  53079.649    0.2019E-20
  53079.714    0.1978E-20
  53079.780    0.1944E-20
  53079.845    0.1921E-20
  53079.911    0.1919E-20
  53079.976    0.1918E-20
  53080.041    0.1919E-20
  53080.107    0.1912E-20
  53080.172    0.1910E-20
  53080.238    0.1902E-20
  53080.303    0.1885E-20
  53080.368    0.1870E-20
  53080.434    0.1862E-20
  53080.499    0.1854E-20
  53080.565    0.1856E-20
  53080.630    0.1856E-20
  53080.695    0.1848E-20
  53080.761    0.1838E-20
  53080.826    0.1820E-20
  53080.891    0.1817E-20
  53080.957    0.1823E-20
  53081.022    0.1829E-20
  53081.088    0.1831E-20
  53081.153    0.1842E-20
  53081.218    0.1857E-20
  53081.284    0.1856E-20
  53081.349    0.1849E-20
  53081.415    0.1836E-20
  53081.480    0.1821E-20
  53081.546    0.1803E-20
  53081.611    0.1796E-20
  53081.676    0.1797E-20
  53081.742    0.1784E-20
  53081.807    0.1778E-20
  53081.873    0.1769E-20
  53081.938    0.1764E-20
  53082.003    0.1769E-20
  53082.069    0.1772E-20
  53082.134    0.1766E-20
  53082.200    0.1749E-20
  53082.265    0.1751E-20
  53082.330    0.1757E-20
  53082.396    0.1777E-20
  53082.461    0.1784E-20
  53082.527    0.1792E-20
  53082.592    0.1806E-20
  53082.657    0.1813E-20
  53082.723    0.1822E-20
  53082.788    0.1820E-20
  53082.854    0.1824E-20
  53082.919    0.1821E-20
  53082.984    0.1805E-20
  53083.050    0.1794E-20
  53083.115    0.1792E-20
  53083.181    0.1792E-20
  53083.246    0.1795E-20
  53083.311    0.1813E-20
  53083.377    0.1832E-20
  53083.442    0.1846E-20
  53083.508    0.1880E-20
  53083.573    0.1921E-20
  53083.638    0.1936E-20
  53083.704    0.1936E-20
  53083.769    0.1914E-20
  53083.835    0.1904E-20
  53083.900    0.1899E-20
  53083.966    0.1915E-20
  53084.031    0.1952E-20
  53084.096    0.1974E-20
  53084.162    0.1996E-20
  53084.227    0.1923E-20
  53084.293    0.1930E-20
  53084.358    0.1932E-20
  53084.423    0.2020E-20
  53084.489    0.1939E-20
  53084.554    0.1970E-20
  53084.620    0.2000E-20
  53084.685    0.1841E-20
  53084.751    0.1859E-20
  53084.816    0.1862E-20
  53084.881    0.1862E-20
  53084.947    0.1869E-20
  53085.012    0.1943E-20
  53085.078    0.1960E-20
  53085.143    0.1877E-20
  53085.208    0.1887E-20
  53085.274    0.1869E-20
  53085.339    0.1869E-20
  53085.405    0.1876E-20
  53085.470    0.1884E-20
  53085.536    0.1902E-20
  53085.601    0.1905E-20
  53085.666    0.1912E-20
  53085.732    0.1923E-20
  53085.797    0.1920E-20
  53085.863    0.1923E-20
  53085.928    0.1901E-20
  53085.993    0.1894E-20
  53086.059    0.1912E-20
  53086.124    0.1931E-20
  53086.190    0.1929E-20
  53086.255    0.1981E-20
  53086.321    0.2015E-20
  53086.386    0.2036E-20
  53086.451    0.2053E-20
  53086.517    0.2090E-20
  53086.582    0.2097E-20
  53086.648    0.2084E-20
  53086.713    0.2089E-20
  53086.779    0.2093E-20
  53086.844    0.2101E-20
  53086.909    0.2108E-20
  53086.975    0.2114E-20
  53087.040    0.2138E-20
  53087.106    0.2167E-20
  53087.171    0.2197E-20
  53087.237    0.2214E-20
  53087.302    0.2238E-20
  53087.367    0.2280E-20
  53087.433    0.2314E-20
  53087.498    0.2337E-20
  53087.564    0.2372E-20
  53087.629    0.2409E-20
  53087.694    0.2449E-20
  53087.760    0.2476E-20
  53087.825    0.2502E-20
  53087.891    0.2538E-20
  53087.956    0.2589E-20
  53088.022    0.2628E-20
  53088.087    0.2672E-20
  53088.152    0.2705E-20
  53088.218    0.2739E-20
  53088.283    0.2766E-20
  53088.349    0.2779E-20
  53088.414    0.2833E-20
  53088.480    0.2899E-20
  53088.545    0.2931E-20
  53088.611    0.2958E-20
  53088.676    0.2962E-20
  53088.741    0.2976E-20
  53088.807    0.3019E-20
  53088.872    0.3082E-20
  53088.938    0.3177E-20
  53089.003    0.3274E-20
  53089.069    0.3374E-20
  53089.134    0.3444E-20
  53089.199    0.3512E-20
  53089.265    0.3581E-20
  53089.330    0.3636E-20
  53089.396    0.3700E-20
  53089.461    0.3802E-20
  53089.527    0.3892E-20
  53089.592    0.3957E-20
  53089.657    0.4012E-20
  53089.723    0.4090E-20
  53089.788    0.4181E-20
  53089.854    0.4287E-20
  53089.919    0.4402E-20
  53089.985    0.4450E-20
  53090.050    0.4580E-20
  53090.116    0.4707E-20
  53090.181    0.4801E-20
  53090.246    0.4850E-20
  53090.312    0.4868E-20
  53090.377    0.5069E-20
  53090.443    0.5360E-20
  53090.508    0.5647E-20
  53090.574    0.5886E-20
  53090.639    0.6080E-20
  53090.704    0.6289E-20
  53090.770    0.6526E-20
  53090.835    0.6702E-20
  53090.901    0.6900E-20
  53090.966    0.7168E-20
  53091.032    0.7431E-20
  53091.097    0.7626E-20
  53091.163    0.7776E-20
  53091.228    0.7922E-20
  53091.293    0.8107E-20
  53091.359    0.8282E-20
  53091.424    0.8539E-20
  53091.490    0.8977E-20
  53091.555    0.9528E-20
  53091.621    0.9997E-20
  53091.686    0.1054E-19
  53091.752    0.1103E-19
  53091.817    0.1146E-19
  53091.882    0.1197E-19
  53091.948    0.1252E-19
  53092.013    0.1308E-19
  53092.079    0.1370E-19
  53092.144    0.1433E-19
  53092.210    0.1498E-19
  53092.275    0.1581E-19
  53092.341    0.1667E-19
  53092.406    0.1882E-19
  53092.471    0.1964E-19
  53092.537    0.2054E-19
  53092.602    0.2178E-19
  53092.668    0.2321E-19
  53092.733    0.2472E-19
  53092.799    0.2634E-19
  53092.864    0.3009E-19
  53092.930    0.3367E-19
  53092.995    0.3626E-19
  53093.061    0.3905E-19
  53093.126    0.4583E-19
  53093.191    0.4935E-19
  53093.257    0.5319E-19
  53093.322    0.5766E-19
  53093.388    0.6277E-19
  53093.453    0.6833E-19
  53093.519    0.7997E-19
  53093.584    0.8593E-19
  53093.650    0.9147E-19
  53093.715    0.9681E-19
  53093.780    0.1009E-18
  53093.846    0.1044E-18
  53093.911    0.1072E-18
  53093.977    0.1097E-18
  53094.042    0.1114E-18
  53094.108    0.1122E-18
  53094.173    0.1118E-18
  53094.239    0.1101E-18
  53094.304    0.1072E-18
  53094.370    0.1032E-18
  53094.435    0.9864E-19
  53094.501    0.9417E-19
  53094.566    0.8916E-19
  53094.631    0.8346E-19
  53094.697    0.7786E-19
  53094.762    0.7260E-19
  53094.828    0.6761E-19
  53094.893    0.6260E-19
  53094.959    0.5980E-19
  53095.024    0.5541E-19
  53095.090    0.5119E-19
  53095.155    0.4959E-19
  53095.221    0.4623E-19
  53095.286    0.4275E-19
  53095.351    0.3968E-19
  53095.417    0.3724E-19
  53095.482    0.3485E-19
  53095.548    0.3376E-19
  53095.613    0.3187E-19
  53095.679    0.3000E-19
  53095.744    0.2831E-19
  53095.810    0.2683E-19
  53095.875    0.2523E-19
  53095.941    0.2377E-19
  53096.006    0.2249E-19
  53096.072    0.2105E-19
  53096.137    0.2066E-19
  53096.202    0.1963E-19
  53096.268    0.1877E-19
  53096.333    0.1799E-19
  53096.399    0.1714E-19
  53096.464    0.1630E-19
  53096.530    0.1547E-19
  53096.595    0.1467E-19
  53096.661    0.1402E-19
  53096.726    0.1356E-19
  53096.792    0.1303E-19
  53096.857    0.1228E-19
  53096.923    0.1176E-19
  53096.988    0.1125E-19
  53097.054    0.1074E-19
  53097.119    0.1027E-19
  53097.184    0.9891E-20
  53097.250    0.9755E-20
  53097.315    0.9392E-20
  53097.381    0.8981E-20
  53097.446    0.8621E-20
  53097.512    0.8267E-20
  53097.577    0.7957E-20
  53097.643    0.7675E-20
  53097.708    0.7417E-20
  53097.774    0.7171E-20
  53097.839    0.6998E-20
  53097.905    0.6872E-20
  53097.970    0.6729E-20
  53098.036    0.6525E-20
  53098.101    0.6333E-20
  53098.167    0.6196E-20
  53098.232    0.6026E-20
  53098.297    0.5903E-20
  53098.363    0.5823E-20
  53098.428    0.5674E-20
  53098.494    0.5527E-20
  53098.559    0.5376E-20
  53098.625    0.5274E-20
  53098.690    0.5159E-20
  53098.756    0.5046E-20
  53098.821    0.4961E-20
  53098.887    0.4863E-20
  53098.952    0.4811E-20
  53099.018    0.4652E-20
  53099.083    0.4530E-20
  53099.149    0.4444E-20
  53099.214    0.4413E-20
  53099.280    0.4381E-20
  53099.345    0.4307E-20
  53099.411    0.4278E-20
  53099.476    0.4201E-20
  53099.542    0.4130E-20
  53099.607    0.4071E-20
  53099.672    0.4017E-20
  53099.738    0.3973E-20
  53099.803    0.3931E-20
  53099.869    0.3864E-20
  53099.934    0.3825E-20
  53100.000    0.3793E-20
  53100.065    0.3776E-20
  53100.131    0.3753E-20
  53100.196    0.3718E-20
  53100.262    0.3666E-20
  53100.327    0.3639E-20
  53100.393    0.3598E-20
  53100.458    0.3598E-20
  53100.524    0.3576E-20
  53100.589    0.3515E-20
  53100.655    0.3464E-20
  53100.720    0.3422E-20
  53100.786    0.3408E-20
  53100.851    0.3390E-20
  53100.917    0.3366E-20
  53100.982    0.3320E-20
  53101.048    0.3283E-20
  53101.113    0.3266E-20
  53101.179    0.3289E-20
  53101.244    0.3316E-20
  53101.310    0.3332E-20
  53101.375    0.3341E-20
  53101.440    0.3341E-20
  53101.506    0.3330E-20
  53101.571    0.3299E-20
  53101.637    0.3262E-20
  53101.702    0.3255E-20
  53101.768    0.3241E-20
  53101.833    0.3241E-20
  53101.899    0.3255E-20
  53101.964    0.3217E-20
  53102.030    0.3190E-20
  53102.095    0.3211E-20
  53102.161    0.3265E-20
  53102.226    0.3326E-20
  53102.292    0.3361E-20
  53102.357    0.3385E-20
  53102.423    0.3400E-20
  53102.488    0.3382E-20
  53102.554    0.3351E-20
  53102.619    0.3319E-20
  53102.685    0.3275E-20
  53102.750    0.3248E-20
  53102.816    0.3237E-20
  53102.881    0.3251E-20
  53102.947    0.3265E-20
  53103.012    0.3328E-20
  53103.078    0.3402E-20
  53103.143    0.3476E-20
  53103.209    0.3504E-20
  53103.274    0.3521E-20
  53103.340    0.3542E-20
  53103.405    0.3571E-20
  53103.471    0.3604E-20
  53103.536    0.3675E-20
  53103.602    0.3749E-20
  53103.667    0.3822E-20
  53103.733    0.3912E-20
  53103.798    0.4004E-20
  53103.864    0.4065E-20
  53103.929    0.4091E-20
  53103.995    0.4100E-20
  53104.060    0.4109E-20
  53104.126    0.4132E-20
  53104.191    0.4147E-20
  53104.257    0.4199E-20
  53104.322    0.4296E-20
  53104.388    0.4345E-20
  53104.453    0.4425E-20
  53104.519    0.4521E-20
  53104.584    0.4603E-20
  53104.650    0.4734E-20
  53104.715    0.4840E-20
  53104.781    0.4873E-20
  53104.846    0.4943E-20
  53104.912    0.5111E-20
  53104.977    0.5242E-20
  53105.043    0.5422E-20
  53105.108    0.5585E-20
  53105.174    0.5728E-20
  53105.239    0.5849E-20
  53105.305    0.6003E-20
  53105.370    0.6152E-20
  53105.436    0.6264E-20
  53105.501    0.6346E-20
  53105.567    0.6462E-20
  53105.632    0.6591E-20
  53105.698    0.6760E-20
  53105.763    0.6937E-20
  53105.829    0.7086E-20
  53105.894    0.7251E-20
  53105.960    0.7396E-20
  53106.025    0.7474E-20
  53106.091    0.7571E-20
  53106.156    0.7715E-20
  53106.222    0.7885E-20
  53106.287    0.8065E-20
  53106.353    0.8280E-20
  53106.418    0.8443E-20
  53106.484    0.8609E-20
  53106.549    0.8719E-20
  53106.615    0.8745E-20
  53106.680    0.8899E-20
  53106.746    0.9163E-20
  53106.811    0.9537E-20
  53106.877    0.9926E-20
  53106.942    0.1031E-19
  53107.008    0.1073E-19
  53107.073    0.1114E-19
  53107.139    0.1149E-19
  53107.204    0.1197E-19
  53107.270    0.1249E-19
  53107.335    0.1341E-19
  53107.401    0.1406E-19
  53107.466    0.1464E-19
  53107.532    0.1541E-19
  53107.597    0.1610E-19
  53107.663    0.1658E-19
  53107.728    0.1726E-19
  53107.794    0.1792E-19
  53107.860    0.1977E-19
  53107.925    0.2064E-19
  53107.991    0.2158E-19
  53108.056    0.2251E-19
  53108.122    0.2341E-19
  53108.187    0.2468E-19
  53108.253    0.2612E-19
  53108.318    0.2755E-19
  53108.384    0.2903E-19
  53108.449    0.3282E-19
  53108.515    0.3450E-19
  53108.580    0.3654E-19
  53108.646    0.4238E-19
  53108.711    0.4537E-19
  53108.777    0.4874E-19
  53108.842    0.5249E-19
  53108.908    0.5688E-19
  53108.973    0.6168E-19
  53109.039    0.6642E-19
  53109.104    0.7093E-19
  53109.170    0.8089E-19
  53109.235    0.8606E-19
  53109.301    0.9212E-19
  53109.366    0.9917E-19
  53109.432    0.1066E-18
  53109.497    0.1134E-18
  53109.563    0.1191E-18
  53109.628    0.1236E-18
  53109.694    0.1271E-18
  53109.760    0.1299E-18
  53109.825    0.1311E-18
  53109.891    0.1310E-18
  53109.956    0.1306E-18
  53110.022    0.1288E-18
  53110.087    0.1263E-18
  53110.153    0.1233E-18
  53110.218    0.1192E-18
  53110.284    0.1144E-18
  53110.349    0.1094E-18
  53110.415    0.1032E-18
  53110.480    0.9715E-19
  53110.546    0.9209E-19
  53110.611    0.8678E-19
  53110.677    0.8116E-19
  53110.742    0.7563E-19
  53110.808    0.7055E-19
  53110.873    0.6604E-19
  53110.939    0.6240E-19
  53111.005    0.5833E-19
  53111.070    0.5476E-19
  53111.136    0.5450E-19
  53111.201    0.5043E-19
  53111.267    0.4710E-19
  53111.332    0.4410E-19
  53111.398    0.4161E-19
  53111.463    0.3898E-19
  53111.529    0.3662E-19
  53111.594    0.3450E-19
  53111.660    0.3336E-19
  53111.725    0.3160E-19
  53111.791    0.3001E-19
  53111.856    0.2855E-19
  53111.922    0.2753E-19
  53111.987    0.2634E-19
  53112.053    0.2535E-19
  53112.119    0.2438E-19
  53112.184    0.2334E-19
  53112.250    0.2227E-19
  53112.315    0.2144E-19
  53112.381    0.2063E-19
  53112.446    0.2001E-19
  53112.512    0.1921E-19
  53112.577    0.1834E-19
  53112.643    0.1743E-19
  53112.708    0.1657E-19
  53112.774    0.1579E-19
  53112.839    0.1504E-19
  53112.905    0.1433E-19
  53112.970    0.1360E-19
  53113.036    0.1304E-19
  53113.102    0.1255E-19
  53113.167    0.1230E-19
  53113.233    0.1198E-19
  53113.298    0.1160E-19
  53113.364    0.1127E-19
  53113.429    0.1099E-19
  53113.495    0.1066E-19
  53113.560    0.1029E-19
  53113.626    0.9983E-20
  53113.691    0.9675E-20
  53113.757    0.9469E-20
  53113.822    0.9161E-20
  53113.888    0.8890E-20
  53113.954    0.8676E-20
  53114.019    0.8568E-20
  53114.085    0.8517E-20
  53114.150    0.8410E-20
  53114.216    0.8347E-20
  53114.281    0.8256E-20
  53114.347    0.8118E-20
  53114.412    0.7967E-20
  53114.478    0.7825E-20
  53114.543    0.7743E-20
  53114.609    0.7680E-20
  53114.674    0.7587E-20
  53114.740    0.7501E-20
  53114.806    0.7482E-20
  53114.871    0.7506E-20
  53114.937    0.7511E-20
  53115.002    0.7472E-20
  53115.068    0.7392E-20
  53115.133    0.7405E-20
  53115.199    0.7395E-20
  53115.264    0.7411E-20
  53115.330    0.7426E-20
  53115.395    0.7495E-20
  53115.461    0.7573E-20
  53115.527    0.7584E-20
  53115.592    0.7541E-20
  53115.658    0.7418E-20
  53115.723    0.7432E-20
  53115.789    0.7544E-20
  53115.854    0.7650E-20
  53115.920    0.7804E-20
  53115.985    0.7944E-20
  53116.051    0.8032E-20
  53116.116    0.8158E-20
  53116.182    0.8268E-20
  53116.248    0.8398E-20
  53116.313    0.8562E-20
  53116.379    0.8748E-20
  53116.444    0.8966E-20
  53116.510    0.9143E-20
  53116.575    0.9288E-20
  53116.641    0.9616E-20
  53116.706    0.9809E-20
  53116.772    0.1006E-19
  53116.838    0.1033E-19
  53116.903    0.1070E-19
  53116.969    0.1119E-19
  53117.034    0.1167E-19
  53117.100    0.1211E-19
  53117.165    0.1249E-19
  53117.231    0.1301E-19
  53117.296    0.1350E-19
  53117.362    0.1416E-19
  53117.428    0.1503E-19
  53117.493    0.1600E-19
  53117.559    0.1695E-19
  53117.624    0.1779E-19
  53117.690    0.1855E-19
  53117.755    0.1998E-19
  53117.821    0.2074E-19
  53117.886    0.2177E-19
  53117.952    0.2276E-19
  53118.018    0.2344E-19
  53118.083    0.2429E-19
  53118.149    0.2521E-19
  53118.214    0.2632E-19
  53118.280    0.2744E-19
  53118.345    0.2840E-19
  53118.411    0.2949E-19
  53118.476    0.3267E-19
  53118.542    0.3379E-19
  53118.608    0.3511E-19
  53118.673    0.3707E-19
  53118.739    0.3912E-19
  53118.804    0.4169E-19
  53118.870    0.4711E-19
  53118.935    0.5028E-19
  53119.001    0.5366E-19
  53119.066    0.5762E-19
  53119.132    0.6175E-19
  53119.198    0.6599E-19
  53119.263    0.7427E-19
  53119.329    0.7944E-19
  53119.394    0.8421E-19
  53119.460    0.8872E-19
  53119.525    0.9270E-19
  53119.591    0.9676E-19
  53119.657    0.9992E-19
  53119.722    0.1025E-18
  53119.788    0.1045E-18
  53119.853    0.1043E-18
  53119.919    0.1032E-18
  53119.984    0.1013E-18
  53120.050    0.9825E-19
  53120.115    0.9491E-19
  53120.181    0.9087E-19
  53120.247    0.8673E-19
  53120.312    0.8290E-19
  53120.378    0.7872E-19
  53120.443    0.7476E-19
  53120.509    0.7082E-19
  53120.574    0.6656E-19
  53120.640    0.6228E-19
  53120.706    0.5964E-19
  53120.771    0.5626E-19
  53120.837    0.5334E-19
  53120.902    0.5072E-19
  53120.968    0.4969E-19
  53121.033    0.4769E-19
  53121.099    0.4582E-19
  53121.165    0.4432E-19
  53121.230    0.4327E-19
  53121.296    0.4229E-19
  53121.361    0.4127E-19
  53121.427    0.4054E-19
  53121.492    0.4006E-19
  53121.558    0.3968E-19
  53121.624    0.3944E-19
  53121.689    0.3882E-19
  53121.755    0.3870E-19
  53121.820    0.3842E-19
  53121.886    0.3802E-19
  53121.951    0.3784E-19
  53122.017    0.3721E-19
  53122.083    0.3676E-19
  53122.148    0.3645E-19
  53122.214    0.3622E-19
  53122.279    0.3576E-19
  53122.345    0.3514E-19
  53122.410    0.3456E-19
  53122.476    0.3397E-19
  53122.542    0.3320E-19
  53122.607    0.3292E-19
  53122.673    0.3364E-19
  53122.738    0.3282E-19
  53122.804    0.3304E-19
  53122.870    0.3319E-19
  53122.935    0.3316E-19
  53123.001    0.3298E-19
  53123.066    0.3331E-19
  53123.132    0.3379E-19
  53123.197    0.3445E-19
  53123.263    0.3536E-19
  53123.329    0.3624E-19
  53123.394    0.3718E-19
  53123.460    0.3836E-19
  53123.525    0.3950E-19
  53123.591    0.4081E-19
  53123.656    0.4219E-19
  53123.722    0.4389E-19
  53123.788    0.4729E-19
  53123.853    0.4934E-19
  53123.919    0.5088E-19
  53123.984    0.5209E-19
  53124.050    0.5282E-19
  53124.116    0.5351E-19
  53124.181    0.5366E-19
  53124.247    0.5320E-19
  53124.312    0.5215E-19
  53124.378    0.5069E-19
  53124.443    0.4898E-19
  53124.509    0.4777E-19
  53124.575    0.4566E-19
  53124.640    0.4328E-19
  53124.706    0.4096E-19
  53124.771    0.3844E-19
  53124.837    0.3593E-19
  53124.903    0.3343E-19
  53124.968    0.3215E-19
  53125.034    0.3017E-19
  53125.099    0.2827E-19
  53125.165    0.2745E-19
  53125.230    0.2585E-19
  53125.296    0.2429E-19
  53125.362    0.2294E-19
  53125.427    0.2181E-19
  53125.493    0.2068E-19
  53125.558    0.2058E-19
  53125.624    0.1974E-19
  53125.690    0.1900E-19
  53125.755    0.1830E-19
  53125.821    0.1772E-19
  53125.886    0.1729E-19
  53125.952    0.1684E-19
  53126.018    0.1648E-19
  53126.083    0.1608E-19
  53126.149    0.1569E-19
  53126.214    0.1538E-19
  53126.280    0.1505E-19
  53126.346    0.1462E-19
  53126.411    0.1430E-19
  53126.477    0.1402E-19
  53126.542    0.1393E-19
  53126.608    0.1380E-19
  53126.674    0.1343E-19
  53126.739    0.1303E-19
  53126.805    0.1261E-19
  53126.870    0.1230E-19
  53126.936    0.1190E-19
  53127.001    0.1145E-19
  53127.067    0.1100E-19
  53127.133    0.1059E-19
  53127.198    0.1019E-19
  53127.264    0.9764E-20
  53127.329    0.9507E-20
  53127.395    0.9046E-20
  53127.461    0.8592E-20
  53127.526    0.8231E-20
  53127.592    0.7872E-20
  53127.657    0.7528E-20
  53127.723    0.7182E-20
  53127.789    0.6865E-20
  53127.854    0.6612E-20
  53127.920    0.6329E-20
  53127.985    0.6079E-20
  53128.051    0.5800E-20
  53128.117    0.5481E-20
  53128.182    0.5227E-20
  53128.248    0.5008E-20
  53128.313    0.4820E-20
  53128.379    0.4653E-20
  53128.445    0.4500E-20
  53128.510    0.4349E-20
  53128.576    0.4251E-20
  53128.641    0.4163E-20
  53128.707    0.4061E-20
  53128.773    0.3936E-20
  53128.838    0.3819E-20
  53128.904    0.3725E-20
  53128.969    0.3627E-20
  53129.035    0.3506E-20
  53129.101    0.3382E-20
  53129.166    0.3258E-20
  53129.232    0.3178E-20
  53129.297    0.3130E-20
  53129.363    0.3105E-20
  53129.429    0.3045E-20
  53129.494    0.2940E-20
  53129.560    0.2854E-20
  53129.626    0.2795E-20
  53129.691    0.2734E-20
  53129.757    0.2685E-20
  53129.822    0.2611E-20
  53129.888    0.2523E-20
  53129.954    0.2451E-20
  53130.019    0.2396E-20
  53130.085    0.2353E-20
  53130.150    0.2313E-20
  53130.216    0.2286E-20
  53130.282    0.2282E-20
  53130.347    0.2281E-20
  53130.413    0.2258E-20
  53130.478    0.2214E-20
  53130.544    0.2174E-20
  53130.610    0.2091E-20
  53130.675    0.2059E-20
  53130.741    0.2017E-20
  53130.806    0.1956E-20
  53130.872    0.1911E-20
  53130.938    0.1891E-20
  53131.003    0.1877E-20
  53131.069    0.1863E-20
  53131.135    0.1812E-20
  53131.200    0.1788E-20
  53131.266    0.1774E-20
  53131.331    0.1760E-20
  53131.397    0.1741E-20
  53131.463    0.1708E-20
  53131.528    0.1675E-20
  53131.594    0.1651E-20
  53131.659    0.1637E-20
  53131.725    0.1623E-20
  53131.791    0.1612E-20
  53131.856    0.1604E-20
  53131.922    0.1575E-20
  53131.988    0.1538E-20
  53132.053    0.1495E-20
  53132.119    0.1466E-20
  53132.184    0.1460E-20
  53132.250    0.1460E-20
  53132.316    0.1449E-20
  53132.381    0.1421E-20
  53132.447    0.1389E-20
  53132.512    0.1374E-20
  53132.578    0.1356E-20
  53132.644    0.1336E-20
  53132.709    0.1331E-20
  53132.775    0.1326E-20
  53132.841    0.1315E-20
  53132.906    0.1305E-20
  53132.972    0.1286E-20
  53133.037    0.1258E-20
  53133.103    0.1233E-20
  53133.169    0.1217E-20
  53133.234    0.1192E-20
  53133.300    0.1178E-20
  53133.366    0.1167E-20
  53133.431    0.1169E-20
  53133.497    0.1175E-20
  53133.562    0.1178E-20
  53133.628    0.1169E-20
  53133.694    0.1152E-20
  53133.759    0.1138E-20
  53133.825    0.1128E-20
  53133.891    0.1114E-20
  53133.956    0.1086E-20
  53134.022    0.1067E-20
  53134.087    0.1050E-20
  53134.153    0.1037E-20
  53134.219    0.1031E-20
  53134.284    0.1036E-20
  53134.350    0.1042E-20
  53134.416    0.1043E-20
  53134.481    0.1043E-20
  53134.547    0.1036E-20
  53134.612    0.1026E-20
  53134.678    0.1013E-20
  53134.744    0.9971E-21
  53134.809    0.9899E-21
  53134.875    0.9819E-21
  53134.941    0.9719E-21
  53135.006    0.9645E-21
  53135.072    0.9501E-21
  53135.137    0.9455E-21
  53135.203    0.9401E-21
  53135.269    0.9364E-21
  53135.334    0.9250E-21
  53135.400    0.9117E-21
  53135.466    0.8876E-21
  53135.531    0.8736E-21
  53135.597    0.8631E-21
  53135.663    0.8642E-21
  53135.728    0.8655E-21
  53135.794    0.8709E-21
  53135.859    0.8733E-21
  53135.925    0.8750E-21
  53135.991    0.8781E-21
  53136.056    0.8764E-21
  53136.122    0.8746E-21
  53136.188    0.8718E-21
  53136.253    0.8528E-21
  53136.319    0.8286E-21
  53136.384    0.7982E-21
  53136.450    0.7749E-21
  53136.516    0.7686E-21
  53136.581    0.7594E-21
  53136.647    0.7556E-21
  53136.713    0.7664E-21
  53136.778    0.7759E-21
  53136.844    0.7749E-21
  53136.910    0.7588E-21
  53136.975    0.7473E-21
  53137.041    0.7484E-21
  53137.106    0.7526E-21
  53137.172    0.7515E-21
  53137.238    0.7423E-21
  53137.303    0.7585E-21
  53137.369    0.7410E-21
  53137.435    0.7191E-21
  53137.500    0.7007E-21
  53137.566    0.6931E-21
  53137.632    0.6871E-21
  53137.697    0.6916E-21
  53137.763    0.6811E-21
  53137.829    0.6722E-21
  53137.894    0.6648E-21
  53137.960    0.6416E-21
  53138.025    0.6302E-21
  53138.091    0.6175E-21
  53138.157    0.6049E-21
  53138.222    0.6091E-21
  53138.288    0.6216E-21
  53138.354    0.6230E-21
  53138.419    0.6160E-21
  53138.485    0.6048E-21
  53138.551    0.5924E-21
  53138.616    0.5815E-21
  53138.682    0.5721E-21
  53138.748    0.5681E-21
  53138.813    0.5601E-21
  53138.879    0.5574E-21
  53138.944    0.5587E-21
  53139.010    0.5547E-21
  53139.076    0.5521E-21
  53139.141    0.5560E-21
  53139.207    0.5666E-21
  53139.273    0.5546E-21
  53139.338    0.5324E-21
  53139.404    0.5183E-21
  53139.470    0.5119E-21
  53139.535    0.5221E-21
  53139.601    0.5427E-21
  53139.667    0.5585E-21
  53139.732    0.5638E-21
  53139.798    0.5651E-21
  53139.864    0.5532E-21
  53139.929    0.5440E-21
  53139.995    0.5374E-21
  53140.061    0.5220E-21
  53140.126    0.5004E-21
  53140.192    0.4905E-21
  53140.257    0.4855E-21
  53140.323    0.4769E-21
  53140.389    0.4720E-21
  53140.454    0.4756E-21
  53140.520    0.4842E-21
  53140.586    0.4966E-21
  53140.651    0.4966E-21
  53140.717    0.4878E-21
  53140.783    0.4719E-21
  53140.848    0.4597E-21
  53140.914    0.4549E-21
  53140.980    0.4549E-21
  53141.045    0.4597E-21
  53141.111    0.4730E-21
  53141.177    0.4803E-21
  53141.242    0.4889E-21
  53141.308    0.4939E-21
  53141.374    0.4939E-21
  53141.439    0.4877E-21
  53141.505    0.4705E-21
  53141.571    0.4607E-21
  53141.636    0.4559E-21
  53141.702    0.4487E-21
  53141.768    0.4463E-21
  53141.833    0.4416E-21
  53141.899    0.4427E-21
  53141.965    0.4392E-21
  53142.030    0.4274E-21
  53142.096    0.4239E-21
  53142.161    0.4192E-21
  53142.227    0.4100E-21
  53142.293    0.4008E-21
  53142.358    0.3940E-21
  53142.424    0.3962E-21
  53142.490    0.4076E-21
  53142.555    0.4203E-21
  53142.621    0.4296E-21
  53142.687    0.4296E-21
  53142.752    0.4272E-21
  53142.818    0.4237E-21
  53142.884    0.4214E-21
  53142.949    0.4213E-21
  53143.015    0.4121E-21
  53143.081    0.4029E-21
  53143.146    0.3915E-21
  53143.212    0.3893E-21
  53143.278    0.3983E-21
  53143.343    0.3994E-21
  53143.409    0.3858E-21
  53143.475    0.3780E-21
  53143.540    0.3757E-21
  53143.606    0.3757E-21
  53143.672    0.3735E-21
  53143.737    0.3746E-21
  53143.803    0.3857E-21
  53143.869    0.3913E-21
  53143.934    0.3913E-21
  53144.000    0.3857E-21
  53144.066    0.3756E-21
  53144.131    0.3712E-21
  53144.197    0.3778E-21
  53144.263    0.3811E-21
  53144.328    0.3800E-21
  53144.394    0.3867E-21
  53144.460    0.3889E-21
  53144.525    0.3833E-21
  53144.591    0.3744E-21
  53144.657    0.3622E-21
  53144.722    0.3578E-21
  53144.788    0.3688E-21
  53144.854    0.3743E-21
  53144.919    0.3709E-21
  53144.985    0.3621E-21
  53145.051    0.3555E-21
  53145.116    0.3577E-21
  53145.182    0.3555E-21
  53145.248    0.3446E-21
  53145.314    0.3382E-21
  53145.379    0.3371E-21
  53145.445    0.3392E-21
  53145.511    0.3403E-21
  53145.576    0.3392E-21
  53145.642    0.3392E-21
  53145.708    0.3359E-21
  53145.773    0.3316E-21
  53145.839    0.3295E-21
  53145.905    0.3316E-21
  53145.970    0.3252E-21
  53146.036    0.3210E-21
  53146.102    0.3252E-21
  53146.167    0.3220E-21
  53146.233    0.3220E-21
  53146.299    0.3230E-21
  53146.364    0.3188E-21
  53146.430    0.3177E-21
  53146.496    0.3145E-21
  53146.561    0.3124E-21
  53146.627    0.3134E-21
  53146.693    0.3134E-21
  53146.758    0.3124E-21
  53146.824    0.3040E-21
  53146.890    0.2967E-21
  53146.955    0.2988E-21
  53147.021    0.3092E-21
  53147.087    0.3165E-21
  53147.152    0.3133E-21
  53147.218    0.3049E-21
  53147.284    0.2915E-21
  53147.350    0.2843E-21
  53147.415    0.2833E-21
  53147.481    0.2772E-21
  53147.547    0.2651E-21
  53147.612    0.2631E-21
  53147.678    0.2631E-21
  53147.744    0.2670E-21
  53147.809    0.2761E-21
  53147.875    0.2811E-21
  53147.941    0.2862E-21
  53148.006    0.2872E-21
  53148.072    0.2821E-21
  53148.138    0.2841E-21
  53148.203    0.2902E-21
  53148.269    0.2892E-21
  53148.335    0.2851E-21
  53148.400    0.2780E-21
  53148.466    0.2759E-21
  53148.532    0.2749E-21
  53148.598    0.2688E-21
  53148.663    0.2688E-21
  53148.729    0.2638E-21
  53148.795    0.2608E-21
  53148.860    0.2618E-21
  53148.926    0.2687E-21
  53148.992    0.2788E-21
  53149.057    0.2818E-21
  53149.123    0.2768E-21
  53149.189    0.2697E-21
  53149.254    0.2646E-21
  53149.320    0.2626E-21
  53149.386    0.2636E-21
  53149.451    0.2616E-21
  53149.517    0.2556E-21
  53149.583    0.2516E-21
  53149.649    0.2506E-21
  53149.714    0.2556E-21
  53149.780    0.2546E-21
  53149.846    0.2565E-21
  53149.911    0.2595E-21
  53149.977    0.2555E-21
  53150.043    0.2535E-21
  53150.108    0.2535E-21
  53150.174    0.2535E-21
  53150.240    0.2534E-21
  53150.306    0.2505E-21
  53150.371    0.2465E-21
  53150.437    0.2485E-21
  53150.503    0.2563E-21
  53150.568    0.2633E-21
  53150.634    0.2623E-21
  53150.700    0.2523E-21
  53150.765    0.2405E-21
  53150.831    0.2337E-21
  53150.897    0.2385E-21
  53150.962    0.2473E-21
  53151.028    0.2522E-21
  53151.094    0.2493E-21
  53151.160    0.2375E-21
  53151.225    0.2287E-21
  53151.291    0.2239E-21
  53151.357    0.2191E-21
  53151.422    0.2095E-21
  53151.488    0.1982E-21
  53151.554    0.2000E-21
  53151.619    0.2047E-21
  53151.685    0.2057E-21
  53151.751    0.2113E-21
  53151.817    0.2113E-21
  53151.882    0.2189E-21
  53151.948    0.2247E-21
  53152.014    0.2208E-21
  53152.079    0.2189E-21
  53152.145    0.2131E-21
  53152.211    0.2074E-21
  53152.276    0.2008E-21
  53152.342    0.1923E-21
  53152.408    0.1840E-21
  53152.474    0.1784E-21
  53152.539    0.1802E-21
  53152.605    0.1848E-21
  53152.671    0.1941E-21
  53152.736    0.2035E-21
  53152.802    0.2111E-21
  53152.868    0.2120E-21
  53152.934    0.2215E-21
  53152.999    0.2321E-21
  53153.065    0.2399E-21
  53153.131    0.2370E-21
  53153.196    0.2292E-21
  53153.262    0.2243E-21
  53153.328    0.2205E-21
  53153.393    0.2109E-21
  53153.459    0.2033E-21
  53153.525    0.2023E-21
  53153.591    0.2052E-21
  53153.656    0.2042E-21
  53153.722    0.2023E-21
  53153.788    0.1929E-21
  53153.853    0.1808E-21
  53153.919    0.1771E-21
  53153.985    0.1808E-21
  53154.051    0.1910E-21
  53154.116    0.1984E-21
  53154.182    0.2031E-21
  53154.248    0.2078E-21
  53154.313    0.2183E-21
  53154.379    0.2260E-21
  53154.445    0.2269E-21
  53154.511    0.2230E-21
  53154.576    0.2173E-21
  53154.642    0.2096E-21
  53154.708    0.2039E-21
  53154.773    0.1992E-21
  53154.839    0.1907E-21
  53154.905    0.1861E-21
  53154.971    0.1796E-21
  53155.036    0.1833E-21
  53155.102    0.1795E-21
  53155.168    0.1731E-21
  53155.233    0.1703E-21
  53155.299    0.1776E-21
  53155.365    0.1850E-21
  53155.431    0.1878E-21
  53155.496    0.1952E-21
  53155.562    0.1924E-21
  53155.628    0.1915E-21
  53155.693    0.2018E-21
  53155.759    0.2074E-21
  53155.825    0.1999E-21
  53155.891    0.1933E-21
  53155.956    0.1942E-21
  53156.022    0.1970E-21
  53156.088    0.1942E-21
  53156.153    0.1885E-21
  53156.219    0.1802E-21
  53156.285    0.1691E-21
  53156.351    0.1682E-21
  53156.416    0.1718E-21
  53156.482    0.1792E-21
  53156.548    0.1875E-21
  53156.614    0.1912E-21
  53156.679    0.1856E-21
  53156.745    0.1773E-21
  53156.811    0.1690E-21
  53156.876    0.1590E-21
  53156.942    0.1535E-21
  53157.008    0.1562E-21
  53157.074    0.1644E-21
  53157.139    0.1753E-21
  53157.205    0.1753E-21
  53157.271    0.1725E-21
  53157.336    0.1707E-21
  53157.402    0.1707E-21
  53157.468    0.1606E-21
  53157.534    0.1516E-21
  53157.599    0.1534E-21
  53157.665    0.1588E-21
  53157.731    0.1660E-21
  53157.797    0.1687E-21
  53157.862    0.1760E-21
  53157.928    0.1797E-21
  53157.994    0.1797E-21
  53158.059    0.1769E-21
  53158.125    0.1659E-21
  53158.191    0.1532E-21
  53158.257    0.1469E-21
  53158.322    0.1451E-21
  53158.388    0.1451E-21
  53158.454    0.1469E-21
  53158.520    0.1477E-21
  53158.585    0.1495E-21
  53158.651    0.1576E-21
  53158.717    0.1621E-21
  53158.782    0.1758E-21
  53158.848    0.1887E-21
  53158.914    0.1906E-21
  53158.980    0.1887E-21
  53159.045    0.1840E-21
  53159.111    0.1822E-21
  53159.177    0.1757E-21
  53159.243    0.1738E-21
  53159.308    0.1692E-21
  53159.374    0.1711E-21
  53159.440    0.1692E-21
  53159.506    0.1674E-21
  53159.571    0.1692E-21
  53159.637    0.1682E-21
  53159.703    0.1591E-21
  53159.768    0.1528E-21
  53159.834    0.1501E-21
  53159.900    0.1501E-21
  53159.966    0.1509E-21
  53160.031    0.1429E-21
  53160.097    0.1420E-21
  53160.163    0.1384E-21
  53160.229    0.1410E-21
  53160.294    0.1428E-21
  53160.360    0.1374E-21
  53160.426    0.1410E-21
  53160.492    0.1427E-21
  53160.557    0.1418E-21
  53160.623    0.1312E-21
  53160.689    0.1250E-21
  53160.755    0.1276E-21
  53160.820    0.1285E-21
  53160.886    0.1276E-21
  53160.952    0.1267E-21
  53161.017    0.1223E-21
  53161.083    0.1214E-21
  53161.149    0.1205E-21
  53161.215    0.1205E-21
  53161.280    0.1213E-21
  53161.346    0.1231E-21
  53161.412    0.1248E-21
  53161.478    0.1283E-21
  53161.543    0.1257E-21
  53161.609    0.1274E-21
  53161.675    0.1274E-21
  53161.741    0.1247E-21
  53161.806    0.1221E-21
  53161.872    0.1238E-21
  53161.938    0.1282E-21
  53162.004    0.1282E-21
  53162.069    0.1317E-21
  53162.135    0.1299E-21
  53162.201    0.1264E-21
  53162.267    0.1237E-21
  53162.332    0.1219E-21
  53162.398    0.1167E-21
  53162.464    0.1167E-21
  53162.530    0.1175E-21
  53162.595    0.1166E-21
  53162.661    0.1123E-21
  53162.727    0.1105E-21
  53162.793    0.1148E-21
  53162.858    0.1148E-21
  53162.924    0.1148E-21
  53162.990    0.1148E-21
  53163.056    0.1070E-21
  53163.121    0.1001E-21
  53163.187    0.1052E-21
  53163.253    0.1061E-21
  53163.319    0.1052E-21
  53163.384    0.1060E-21
  53163.450    0.1069E-21
  53163.516    0.1164E-21
  53163.582    0.1234E-21
  53163.647    0.1277E-21
  53163.713    0.1312E-21
  53163.779    0.1259E-21
  53163.845    0.1207E-21
  53163.910    0.1128E-21
  53163.976    0.1050E-21
  53164.042    0.1059E-21
  53164.108    0.1093E-21
  53164.173    0.1171E-21
  53164.239    0.1232E-21
  53164.305    0.1214E-21
  53164.371    0.1188E-21
  53164.436    0.1109E-21
  53164.502    0.9460E-22
  53164.568    0.8863E-22
  53164.634    0.9201E-22
  53164.699    0.9882E-22
  53164.765    0.1091E-21
  53164.831    0.1204E-21
  53164.897    0.1204E-21
  53164.962    0.1169E-21
  53165.028    0.1134E-21
  53165.094    0.1134E-21
  53165.160    0.1142E-21
  53165.225    0.1142E-21
  53165.291    0.1133E-21
  53165.357    0.1176E-21
  53165.423    0.1194E-21
  53165.489    0.1133E-21
  53165.554    0.1046E-21
  53165.620    0.1011E-21
  53165.686    0.9258E-22
  53165.752    0.9256E-22
  53165.817    0.9766E-22
  53165.883    0.9679E-22
  53165.949    0.9421E-22
  53166.015    0.9420E-22
  53166.080    0.9418E-22
  53166.146    0.9416E-22
  53166.212    0.8989E-22
  53166.278    0.8479E-22
  53166.343    0.9240E-22
  53166.409    0.8729E-22
  53166.475    0.8390E-22
  53166.541    0.8895E-22
  53166.606    0.9319E-22
  53166.672    0.9573E-22
  53166.738    0.1026E-21
  53166.804    0.1138E-21
  53166.870    0.1164E-21
  53166.935    0.1155E-21
  53167.001    0.1163E-21
  53167.067    0.1233E-21
  53167.133    0.1233E-21
  53167.198    0.1163E-21
  53167.264    0.1154E-21
  53167.330    0.1206E-21
  53167.396    0.1250E-21
  53167.461    0.1214E-21
  53167.527    0.1145E-21
  53167.593    0.1058E-21
  53167.659    0.9461E-22
  53167.724    0.8019E-22
  53167.790    0.6930E-22
  53167.856    0.6845E-22
  53167.922    0.7511E-22
  53167.988    0.8857E-22
  53168.053    0.1014E-21
  53168.119    0.1091E-21
  53168.185    0.1082E-21
  53168.251    0.1073E-21
  53168.316    0.1030E-21
  53168.382    0.9869E-22
  53168.448    0.9696E-22
  53168.514    0.9694E-22
  53168.580    0.9864E-22
  53168.645    0.1072E-21
  53168.711    0.1072E-21
  53168.777    0.1063E-21
  53168.843    0.1037E-21
  53168.908    0.1063E-21
  53168.974    0.1097E-21
  53169.040    0.1037E-21
  53169.106    0.9508E-22
  53169.171    0.9250E-22
  53169.237    0.9334E-22
  53169.303    0.8907E-22
  53169.369    0.8820E-22
  53169.435    0.8734E-22
  53169.500    0.8817E-22
  53169.566    0.8985E-22
  53169.632    0.9494E-22
  53169.698    0.1052E-21
  53169.763    0.1165E-21
  53169.829    0.1199E-21
  53169.895    0.1147E-21
  53169.961    0.1095E-21
  53170.027    0.1069E-21
  53170.092    0.1042E-21
  53170.158    0.9822E-22
  53170.224    0.8882E-22
  53170.290    0.7783E-22
  53170.355    0.7111E-22
  53170.421    0.7026E-22
  53170.487    0.6442E-22
  53170.553    0.6358E-22
  53170.619    0.7188E-22
  53170.684    0.8193E-22
  53170.750    0.8360E-22
  53170.816    0.8527E-22
  53170.882    0.8610E-22
